Data from 20171114-ORNL-Ar_H_NY_Subt18_08-03-45-684.txt Node
Date: Tue Nov 14 08:03:45 EST 2017
User: Ender
Spectrometer: HR+D1039
Trigger mode: 0
Integration Time (sec): 2.730000E-2
Scans to average: 10
Electric dark correction enabled: true
Nonlinearity correction enabled: false
Boxcar width: 0
XAxis mode: Wavelengths
Number of Pixels in Spectrum: 2048
>>>>>Begin Spectral Data<<<<<
187.836	-3.86
188.309	-3.86
188.782	-3.86
189.255	2.54
189.728	-0.26
190.201	5.94
190.674	-1.16
191.147	7.34
191.619	-3.26
192.092	0.04
192.565	4.64
193.038	0.54
193.511	1.54
193.984	-2.26
194.456	-0.16
194.929	-2.36
195.402	-6.46
195.874	-2.76
196.347	-1.46
196.82	-9.46
197.292	3.84
197.765	-5.36
198.237	-9.56
198.71	2.24
199.182	-6.66
199.655	2.44
200.127	-0.26
200.6	-2.46
201.072	-8.06
201.544	-7.96
202.017	-9.56
202.489	3.44
202.961	0.44
203.433	0.64
203.906	-6.06
204.378	-3.26
204.85	-4.86
205.322	-4.86
205.794	-6.76
206.266	-8.56
206.739	-10.26
207.211	9.04
207.683	-9.46
208.155	-5.46
208.627	-8.46
209.099	-3.66
209.57	-8.86
210.042	-6.96
210.514	-8.56
210.986	-5.56
211.458	-11.26
211.93	-6.66
212.402	0.74
212.873	-9.86
213.345	-4.76
213.817	-11.06
214.288	-5.46
214.76	-3.06
215.232	1.94
215.703	-9.56
216.175	1.94
216.646	-4.86
217.118	-3.66
217.589	-4.96
218.061	-6.66
218.532	-6.36
219.004	0.24
219.475	-4.06
219.946	-11.76
220.418	-0.66
220.889	3.94
221.36	-2.06
221.832	-3.16
222.303	-7.46
222.774	-1.46
223.245	-6.16
223.717	-6.26
224.188	-4.26
224.659	-11.06
225.13	-5.86
225.601	0.04
226.072	0.24
226.543	-2.36
227.014	-1.66
227.485	-9.46
227.956	-5.46
228.427	-4.86
228.898	-3.56
229.369	1.84
229.839	-7.16
230.31	-5.16
230.781	0.94
231.252	-1.76
231.722	-6.86
232.193	-8.96
232.664	-5.56
233.135	-1.96
233.605	-2.86
234.076	-9.46
234.546	-3.86
235.017	-4.36
235.487	-2.16
235.958	-4.86
236.428	-3.36
236.899	-9.86
237.369	1.14
237.84	-9.76
238.31	0.94
238.78	-0.16
239.251	-6.16
239.721	2.34
240.191	-5.06
240.662	3.44
241.132	4.24
241.602	-8.56
242.072	-3.86
242.542	0.84
243.013	-10.46
243.483	2.64
243.953	3.44
244.423	4.84
244.893	-12.86
245.363	1.54
245.833	1.64
246.303	-7.36
246.773	3.04
247.243	0.64
247.712	-0.96
248.182	-3.16
248.652	-2.66
249.122	-8.16
249.592	0.14
250.061	-0.46
250.531	8.34
251.001	-7.46
251.471	8.44
251.94	5.54
252.41	-0.06
252.879	-8.26
253.349	7.34
253.818	3.84
254.288	-1.86
254.757	2.54
255.227	-5.86
255.696	-1.46
256.166	1.64
256.635	6.24
257.105	-5.06
257.574	-0.06
258.043	0.64
258.513	-3.16
258.982	-1.26
259.451	-8.36
259.92	-0.16
260.389	-0.06
260.859	6.94
261.328	-1.46
261.797	6.44
262.266	-2.26
262.735	3.44
263.204	-1.36
263.673	-1.76
264.142	6.84
264.611	-7.96
265.08	-7.66
265.549	-10.16
266.018	-0.96
266.487	-3.16
266.955	-5.96
267.424	-5.36
267.893	4.64
268.362	-7.66
268.83	5.64
269.299	2.14
269.768	-0.16
270.236	-5.06
270.705	-3.96
271.174	-0.16
271.642	6.24
272.111	-1.66
272.579	2.54
273.048	3.04
273.516	4.44
273.985	2.84
274.453	4.44
274.922	12.34
275.39	0.74
275.858	-3.16
276.327	5.44
276.795	9.74
277.263	-0.86
277.731	14.44
278.2	4.44
278.668	0.74
279.136	1.14
279.604	-2.96
280.072	3.94
280.54	1.74
281.008	2.54
281.477	8.84
281.945	8.84
282.413	6.64
282.881	7.74
283.348	2.24
283.816	8.04
284.284	6.04
284.752	12.74
285.22	3.94
285.688	5.94
286.156	8.04
286.623	16.84
287.091	5.74
287.559	10.04
288.026	10.44
288.494	6.74
288.962	4.74
289.429	0.14
289.897	10.34
290.364	7.94
290.832	13.54
291.3	9.14
291.767	10.44
292.234	11.04
292.702	6.34
293.169	6.04
293.637	16.04
294.104	14.34
294.571	-5.76
295.039	9.44
295.506	8.34
295.973	11.04
296.44	10.84
296.908	12.64
297.375	7.14
297.842	12.74
298.309	1.84
298.776	1.24
299.243	11.74
299.71	11.44
300.177	13.54
300.644	16.64
301.111	9.24
301.578	11.94
302.045	6.44
302.512	11.84
302.979	17.04
303.446	17.64
303.913	11.24
304.379	13.24
304.846	16.34
305.313	21.04
305.78	14.84
306.246	17.74
306.713	20.54
307.18	14.44
307.646	18.14
308.113	18.14
308.579	20.24
309.046	19.04
309.512	16.54
309.979	12.54
310.445	19.34
310.912	19.94
311.378	26.74
311.845	18.74
312.311	29.94
312.777	23.84
313.244	22.54
313.71	31.34
314.176	24.34
314.642	19.44
315.109	26.44
315.575	30.94
316.041	30.34
316.507	19.74
316.973	26.04
317.439	22.04
317.905	25.14
318.371	25.74
318.837	28.74
319.303	20.64
319.769	24.14
320.235	27.64
320.701	23.34
321.167	27.54
321.633	24.94
322.099	27.54
322.564	40.14
323.03	22.84
323.496	31.84
323.962	28.84
324.427	25.24
324.893	37.94
325.359	31.84
325.824	30.54
326.29	29.84
326.755	28.94
327.221	33.84
327.686	32.84
328.152	36.54
328.617	35.84
329.083	43.44
329.548	43.34
330.014	41.04
330.479	32.34
330.944	43.24
331.41	33.44
331.875	36.54
332.34	33.94
332.805	36.84
333.271	36.14
333.736	28.94
334.201	45.44
334.666	45.44
335.131	43.34
335.596	41.94
336.061	45.04
336.526	34.84
336.991	37.64
337.456	47.14
337.921	42.04
338.386	42.84
338.851	45.54
339.316	46.04
339.781	47.74
340.246	43.54
340.711	44.64
341.175	45.24
341.64	36.14
342.105	42.54
342.569	49.44
343.034	46.64
343.499	53.74
343.963	40.94
344.428	58.44
344.893	50.64
345.357	55.94
345.822	50.84
346.286	59.54
346.751	67.24
347.215	63.04
347.679	62.64
348.144	80.54
348.608	73.84
349.073	65.44
349.537	71.34
350.001	65.44
350.465	77.44
350.93	75.54
351.394	77.34
351.858	64.84
352.322	83.44
352.786	73.04
353.25	76.84
353.715	97.44
354.179	88.04
354.643	103.84
355.107	105.34
355.571	89.84
356.035	90.44
356.498	97.44
356.962	101.54
357.426	105.34
357.89	95.04
358.354	85.44
358.818	78.54
359.281	70.84
359.745	69.54
360.209	73.14
360.673	75.34
361.136	74.14
361.6	79.34
362.064	81.44
362.527	81.44
362.991	94.04
363.454	72.84
363.918	74.84
364.381	75.74
364.845	83.14
365.308	85.74
365.772	85.24
366.235	84.84
366.698	74.64
367.162	88.14
367.625	85.04
368.088	88.74
368.552	88.44
369.015	93.24
369.478	90.54
369.941	94.94
370.404	90.24
370.867	99.44
371.331	99.14
371.794	107.24
372.257	96.34
372.72	106.44
373.183	97.14
373.646	91.84
374.109	100.34
374.572	99.54
375.035	106.54
375.497	105.84
375.96	104.04
376.423	107.04
376.886	109.94
377.349	108.04
377.811	106.04
378.274	108.54
378.737	110.24
379.199	117.34
379.662	113.54
380.125	109.64
380.587	114.94
381.05	110.74
381.512	110.94
381.975	128.04
382.437	122.64
382.9	119.54
383.362	125.04
383.825	132.54
384.287	130.04
384.75	125.44
385.212	131.14
385.674	136.34
386.136	141.74
386.599	128.24
387.061	128.24
387.523	130.74
387.985	132.04
388.447	135.14
388.91	136.74
389.372	132.54
389.834	138.74
390.296	135.04
390.758	138.84
391.22	145.74
391.682	149.44
392.144	153.94
392.606	146.44
393.068	145.74
393.529	160.54
393.991	144.44
394.453	135.84
394.915	140.74
395.377	139.84
395.838	140.34
396.3	141.44
396.762	151.34
397.224	146.44
397.685	141.34
398.147	146.24
398.608	147.04
399.07	145.74
399.531	149.24
399.993	153.74
400.454	160.64
400.916	159.94
401.377	156.74
401.839	163.24
402.3	161.94
402.762	177.34
403.223	193.24
403.684	179.94
404.145	179.54
404.607	179.74
405.068	169.04
405.529	178.44
405.99	191.44
406.451	176.84
406.913	182.74
407.374	182.94
407.835	177.14
408.296	184.84
408.757	184.74
409.218	197.84
409.679	191.34
410.14	188.04
410.601	187.34
411.062	190.74
411.522	189.04
411.983	190.64
412.444	192.64
412.905	201.24
413.366	200.44
413.826	214.74
414.287	235.14
414.748	295.54
415.208	271.34
415.669	233.94
416.13	227.44
416.59	218.04
417.051	233.74
417.511	250.04
417.972	266.44
418.432	273.74
418.893	323.64
419.353	288.04
419.814	222.84
420.274	211.04
420.734	203.34
421.195	218.74
421.655	204.84
422.115	205.54
422.576	218.14
423.036	220.54
423.496	225.84
423.956	236.74
424.416	249.54
424.876	291.24
425.336	284.54
425.797	283.04
426.257	273.24
426.717	257.74
427.177	253.64
427.637	239.44
428.097	250.04
428.556	260.14
429.016	278.44
429.476	272.34
429.936	286.74
430.396	287.84
430.856	299.24
431.315	320.04
431.775	356.14
432.235	390.24
432.694	366.94
433.154	375.94
433.614	384.84
434.073	346.04
434.533	296.14
434.993	280.84
435.452	292.64
435.912	294.74
436.371	283.54
436.83	285.84
437.29	270.14
437.749	254.14
438.209	263.04
438.668	263.84
439.127	282.14
439.587	264.34
440.046	244.44
440.505	267.04
440.964	279.24
441.424	312.94
441.883	300.14
442.342	265.14
442.801	245.44
443.26	245.04
443.719	244.24
444.178	238.24
444.637	224.44
445.096	233.44
445.555	235.74
446.014	242.34
446.473	244.74
446.932	251.04
447.391	240.94
447.849	245.74
448.308	246.44
448.767	240.24
449.226	257.14
449.685	259.64
450.143	264.64
450.602	255.44
451.061	241.94
451.519	252.54
451.978	244.04
452.436	240.04
452.895	248.64
453.353	253.74
453.812	250.24
454.27	247.04
454.729	251.44
455.187	241.74
455.646	254.64
456.104	252.34
456.562	260.34
457.021	273.54
457.479	264.74
457.937	274.34
458.395	277.14
458.854	264.64
459.312	265.94
459.77	276.74
460.228	267.84
460.686	264.34
461.144	274.44
461.602	256.74
462.06	252.44
462.518	268.74
462.976	271.44
463.434	274.04
463.892	273.74
464.35	276.74
464.808	291.94
465.266	274.94
465.724	289.04
466.181	289.54
466.639	285.34
467.097	296.64
467.555	316.54
468.012	304.14
468.47	316.94
468.928	331.44
469.385	342.54
469.843	345.84
470.3	359.54
470.758	360.74
471.215	377.74
471.673	399.94
472.13	395.94
472.588	415.14
473.045	378.94
473.503	389.24
473.96	403.74
474.417	417.24
474.875	433.64
475.332	461.74
475.789	457.44
476.246	459.34
476.704	482.24
477.161	501.54
477.618	528.04
478.075	550.64
478.532	591.84
478.989	646.24
479.446	731.04
479.903	725.34
480.36	761.04
480.817	806.24
481.274	899.24
481.731	982.54
482.188	1057.14
482.645	1188.84
483.102	1260.64
483.558	1379.94
484.015	1428.54
484.472	1414.14
484.929	1363.44
485.385	1324.44
485.842	1309.54
486.299	1252.84
486.755	1190.94
487.212	1033.04
487.668	901.04
488.125	834.84
488.582	759.04
489.038	736.84
489.494	698.44
489.951	680.34
490.407	660.54
490.864	639.44
491.32	638.44
491.776	633.84
492.233	640.14
492.689	603.14
493.145	595.94
493.602	591.14
494.058	608.64
494.514	605.74
494.97	615.04
495.426	616.44
495.882	594.04
496.338	594.14
496.794	600.64
497.251	591.64
497.707	599.94
498.163	608.74
498.618	608.44
499.074	614.24
499.53	628.04
499.986	638.24
500.442	609.74
500.898	599.84
501.354	597.14
501.809	597.84
502.265	592.74
502.721	608.04
503.177	608.64
503.632	616.54
504.088	617.44
504.543	634.34
504.999	641.54
505.455	621.04
505.91	617.64
506.366	611.84
506.821	612.34
507.277	617.04
507.732	615.64
508.187	614.24
508.643	616.24
509.098	620.74
509.553	628.64
510.009	639.64
510.464	641.34
510.919	649.44
511.375	660.24
511.83	663.54
512.285	687.64
512.74	710.44
513.195	715.34
513.65	713.44
514.105	713.44
514.56	718.64
515.015	732.74
515.47	745.44
515.925	733.84
516.38	734.94
516.835	752.14
517.29	736.54
517.745	727.84
518.2	722.24
518.655	702.44
519.109	679.94
519.564	690.54
520.019	671.64
520.474	670.84
520.928	680.74
521.383	667.34
521.838	657.34
522.292	660.54
522.747	655.54
523.201	661.94
523.656	653.44
524.11	656.84
524.565	652.24
525.019	643.14
525.474	648.84
525.928	654.14
526.382	650.74
526.837	644.74
527.291	638.84
527.745	643.54
528.2	638.94
528.654	641.74
529.108	634.14
529.562	647.54
530.016	621.64
530.47	619.34
530.925	621.04
531.379	632.64
531.833	638.94
532.287	636.04
532.741	614.94
533.195	633.64
533.649	631.74
534.103	645.94
534.556	629.24
535.01	643.24
535.464	628.94
535.918	637.94
536.372	646.64
536.826	641.54
537.279	631.24
537.733	636.14
538.187	639.54
538.64	638.74
539.094	634.14
539.548	645.74
540.001	648.24
540.455	645.74
540.908	642.94
541.362	662.84
541.815	667.54
542.269	677.64
542.722	672.94
543.175	681.54
543.629	684.44
544.082	693.14
544.536	703.64
544.989	699.64
545.442	707.54
545.895	700.94
546.349	701.14
546.802	706.14
547.255	719.04
547.708	713.54
548.161	721.04
548.614	722.44
549.067	728.24
549.52	723.14
549.973	716.44
550.426	712.24
550.879	700.24
551.332	703.84
551.785	707.54
552.238	702.34
552.691	706.14
553.144	723.14
553.596	726.94
554.049	731.14
554.502	758.54
554.955	779.74
555.407	786.24
555.86	770.64
556.313	747.54
556.765	746.34
557.218	746.14
557.67	749.04
558.123	743.34
558.576	746.04
559.028	744.44
559.48	762.34
559.933	765.74
560.385	725.64
560.838	694.94
561.29	670.84
561.742	674.94
562.195	666.74
562.647	661.74
563.099	668.84
563.551	665.14
564.004	668.04
564.456	662.04
564.908	651.84
565.36	635.84
565.812	615.04
566.264	611.54
566.716	612.84
567.168	592.64
567.62	597.74
568.072	596.14
568.524	594.34
568.976	585.94
569.428	575.14
569.88	568.94
570.332	578.04
570.784	568.34
571.235	571.44
571.687	576.24
572.139	590.14
572.59	587.64
573.042	592.74
573.494	592.04
573.945	582.54
574.397	558.24
574.849	578.64
575.3	574.64
575.752	565.54
576.203	565.44
576.655	566.24
577.106	550.04
577.557	550.94
578.009	551.44
578.46	550.74
578.912	536.54
579.363	544.04
579.814	547.24
580.265	538.64
580.717	549.54
581.168	547.84
581.619	546.34
582.07	549.24
582.521	547.04
582.972	545.84
583.423	546.04
583.875	548.84
584.326	558.04
584.777	559.54
585.227	580.94
585.678	594.94
586.129	609.94
586.58	624.04
587.031	653.64
587.482	682.84
587.933	717.94
588.384	691.24
588.834	647.24
589.285	621.84
589.736	624.04
590.186	622.94
590.637	621.84
591.088	602.44
591.538	598.04
591.989	584.04
592.439	581.04
592.89	575.34
593.34	557.14
593.791	561.14
594.241	545.24
594.692	555.14
595.142	542.44
595.593	551.24
596.043	552.74
596.493	557.04
596.943	551.24
597.394	571.44
597.844	568.74
598.294	579.24
598.744	592.64
599.195	612.74
599.645	643.64
600.095	669.84
600.545	708.24
600.995	751.54
601.445	792.84
601.895	850.74
602.345	887.24
602.795	862.74
603.245	832.94
603.695	796.24
604.145	748.04
604.594	717.04
605.044	677.54
605.494	636.64
605.944	599.54
606.393	575.34
606.843	564.44
607.293	561.14
607.743	553.64
608.192	560.84
608.642	576.74
609.091	571.74
609.541	584.24
609.99	587.04
610.44	585.04
610.889	556.34
611.339	536.74
611.788	528.04
612.238	522.24
612.687	540.94
613.136	535.34
613.586	542.44
614.035	529.94
614.484	542.74
614.933	543.44
615.383	540.54
615.832	533.64
616.281	543.74
616.73	518.94
617.179	510.14
617.628	495.54
618.077	475.84
618.526	472.14
618.975	464.64
619.424	467.14
619.873	467.44
620.322	468.64
620.771	458.74
621.22	455.54
621.669	449.64
622.118	449.34
622.567	428.74
623.015	428.94
623.464	431.94
623.913	419.94
624.361	421.54
624.81	415.54
625.259	413.64
625.707	424.84
626.156	416.24
626.604	431.14
627.053	421.04
627.501	423.44
627.95	424.04
628.398	436.44
628.847	425.04
629.295	431.14
629.744	431.24
630.192	419.14
630.64	422.24
631.089	412.34
631.537	398.14
631.985	390.14
632.433	395.04
632.881	388.54
633.33	392.64
633.778	379.14
634.226	384.24
634.674	394.34
635.122	402.24
635.57	402.84
636.018	420.54
636.466	410.84
636.914	410.04
637.362	419.84
637.81	426.44
638.258	427.94
638.705	433.94
639.153	453.34
639.601	453.14
640.049	471.14
640.497	496.24
640.944	520.04
641.392	482.24
641.84	463.94
642.287	432.04
642.735	416.54
643.182	417.64
643.63	421.24
644.078	415.54
644.525	425.44
644.973	424.24
645.42	436.34
645.867	454.44
646.315	470.94
646.762	477.34
647.21	499.64
647.657	509.14
648.104	540.94
648.551	550.94
648.999	597.54
649.446	639.84
649.893	687.84
650.34	787.54
650.787	936.74
651.234	1128.34
651.682	1453.54
652.129	1947.74
652.576	2742.74
653.023	4008.14
653.47	5548.14
653.917	6996.04
654.363	8200.34
654.81	9325.04
655.257	8850.44
655.704	5892.04
656.151	3492.04
656.598	2284.24
657.044	1647.24
657.491	1262.94
657.938	1015.64
658.385	859.54
658.831	755.44
659.278	678.04
659.724	600.84
660.171	548.54
660.618	503.54
661.064	475.74
661.511	459.84
661.957	447.64
662.404	448.64
662.85	446.14
663.296	420.74
663.743	396.84
664.189	386.04
664.635	379.14
665.082	378.04
665.528	376.74
665.974	367.44
666.42	363.54
666.867	363.14
667.313	339.74
667.759	330.84
668.205	324.44
668.651	330.54
669.097	330.04
669.543	321.04
669.989	319.34
670.435	322.64
670.881	322.64
671.327	323.94
671.773	343.44
672.219	346.64
672.665	390.74
673.11	414.54
673.556	457.24
674.002	486.94
674.448	472.54
674.893	404.64
675.339	351.44
675.785	313.24
676.23	309.34
676.676	285.14
677.122	274.24
677.567	264.44
678.013	263.34
678.458	263.34
678.904	259.34
679.349	245.54
679.794	249.24
680.24	248.64
680.685	254.54
681.131	241.24
681.576	249.24
682.021	248.44
682.466	247.64
682.912	251.04
683.357	246.94
683.802	270.54
684.247	282.14
684.692	313.04
685.137	347.74
685.583	379.94
686.028	407.84
686.473	379.94
686.918	316.64
687.363	304.34
687.807	287.74
688.252	266.34
688.697	259.54
689.142	239.74
689.587	237.44
690.032	233.74
690.477	241.54
690.921	249.64
691.366	272.04
691.811	287.04
692.255	316.64
692.7	332.74
693.145	353.64
693.589	471.74
694.034	775.84
694.478	1091.94
694.923	1279.24
695.367	1710.34
695.812	900.34
696.256	360.64
696.701	263.74
697.145	251.24
697.59	236.04
698.034	225.44
698.478	226.74
698.922	225.74
699.367	224.54
699.811	233.74
700.255	249.84
700.699	262.74
701.143	294.24
701.588	333.54
702.032	368.84
702.476	368.84
702.92	358.14
703.364	353.94
703.808	434.04
704.252	698.44
704.696	1029.24
705.14	1234.34
705.584	1603.34
706.027	796.14
706.471	383.84
706.915	282.64
707.359	251.94
707.803	228.94
708.246	225.34
708.69	232.44
709.134	225.14
709.577	218.64
710.021	226.54
710.465	214.24
710.908	215.34
711.352	210.64
711.795	223.64
712.239	241.44
712.682	262.74
713.126	290.24
713.569	330.94
714.012	251.94
714.456	219.24
714.899	199.44
715.342	193.74
715.786	187.44
716.229	184.44
716.672	185.94
717.115	172.14
717.558	174.94
718.002	171.04
718.445	186.14
718.888	201.44
719.331	207.04
719.774	210.34
720.217	210.94
720.66	200.64
721.103	193.14
721.546	182.04
721.989	185.84
722.432	160.84
722.874	167.74
723.317	156.94
723.76	166.14
724.203	183.64
724.645	216.84
725.088	302.34
725.531	397.74
725.974	473.34
726.416	397.44
726.859	215.24
727.301	167.64
727.744	167.44
728.187	164.54
728.629	163.34
729.071	170.14
729.514	185.94
729.956	191.44
730.399	195.94
730.841	204.94
731.283	195.04
731.726	188.84
732.168	182.84
732.61	188.64
733.053	203.94
733.495	221.64
733.937	242.64
734.379	280.24
734.821	303.84
735.263	375.54
735.705	561.94
736.148	1068.24
736.59	1823.84
737.032	2300.54
737.474	1874.44
737.916	603.04
738.357	304.24
738.799	243.74
739.241	210.14
739.683	200.34
740.125	207.84
740.567	215.54
741.008	228.34
741.45	222.44
741.892	225.54
742.334	250.84
742.775	273.04
743.217	260.04
743.658	195.84
744.1	184.14
744.542	191.14
744.983	234.74
745.425	267.94
745.866	270.74
746.307	207.24
746.749	199.24
747.19	228.54
747.632	314.84
748.073	586.84
748.514	1271.64
748.956	2043.94
749.397	2566.04
749.838	2158.14
750.279	2223.74
750.72	1133.84
751.162	398.24
751.603	229.94
752.044	182.94
752.485	149.84
752.926	140.54
753.367	140.14
753.808	140.24
754.249	135.44
754.69	130.74
755.131	129.04
755.572	131.64
756.013	124.04
756.453	121.94
756.894	128.54
757.335	135.24
757.776	135.04
758.216	137.04
758.657	136.14
759.098	140.64
759.538	155.94
759.979	180.24
760.42	255.94
760.86	475.94
761.301	1237.74
761.741	3125.74
762.182	4958.04
762.622	3538.64
763.063	991.84
763.503	386.74
763.943	235.34
764.384	202.24
764.824	186.24
765.264	177.64
765.705	150.14
766.145	127.84
766.585	121.34
767.025	112.64
767.465	110.74
767.906	129.84
768.346	148.74
768.786	154.24
769.226	149.14
769.666	210.04
770.106	405.44
770.546	1043.64
770.986	1938.84
771.426	1793.94
771.866	585.64
772.306	228.94
772.745	149.64
773.185	118.24
773.625	118.24
774.065	99.24
774.505	116.54
774.944	154.34
775.384	259.44
775.824	477.64
776.263	473.94
776.703	219.84
777.142	118.04
777.582	93.74
778.021	87.44
778.461	85.04
778.9	88.64
779.34	88.74
779.779	75.44
780.219	72.54
780.658	68.54
781.097	76.64
781.537	81.44
781.976	70.84
782.415	67.14
782.855	64.84
783.294	68.14
783.733	68.84
784.172	72.94
784.611	66.44
785.05	74.44
785.489	74.54
785.928	84.04
786.367	85.64
786.806	75.14
787.245	91.64
787.684	98.04
788.123	101.34
788.562	95.14
789.001	90.14
789.44	83.04
789.879	82.04
790.317	85.74
790.756	87.74
791.195	86.04
791.634	100.14
792.072	140.04
792.511	244.74
792.95	676.84
793.388	1539.14
793.827	1472.34
794.265	490.64
794.704	198.04
795.142	126.54
795.581	106.54
796.019	97.14
796.458	89.24
796.896	81.84
797.334	84.84
797.773	106.84
798.211	154.34
798.649	285.64
799.087	700.74
799.526	1143.24
799.964	1439.74
800.402	1529.44
800.84	569.64
801.278	219.64
801.716	140.24
802.154	108.74
802.592	104.14
803.03	90.64
803.468	94.94
803.906	100.74
804.344	103.24
804.782	97.94
805.22	92.24
805.658	82.74
806.096	111.34
806.533	116.44
806.971	125.34
807.409	151.44
807.847	220.54
808.284	450.34
808.722	1317.84
809.16	2466.94
809.597	2252.04
810.035	4027.94
810.472	4635.54
810.91	1636.64
811.347	596.14
811.785	296.94
812.222	192.74
812.66	139.04
813.097	120.84
813.535	99.54
813.972	91.04
814.409	82.54
814.846	78.14
815.284	79.04
815.721	67.44
816.158	73.34
816.595	81.04
817.032	119.24
817.47	148.54
817.907	111.34
818.344	78.24
818.781	64.94
819.218	71.54
819.655	94.94
820.092	151.64
820.529	182.14
820.966	133.74
821.403	94.44
821.839	68.24
822.276	69.74
822.713	93.54
823.15	105.34
823.587	88.74
824.023	103.44
824.46	191.44
824.897	616.54
825.333	1016.94
825.77	438.54
826.206	167.84
826.643	95.64
827.08	73.84
827.516	57.24
827.953	56.64
828.389	57.04
828.825	55.24
829.262	35.84
829.698	41.44
830.135	47.74
830.571	39.04
831.007	42.64
831.443	43.74
831.88	38.24
832.316	41.44
832.752	41.54
833.188	43.84
833.624	44.04
834.06	41.44
834.497	43.74
834.933	50.14
835.369	51.74
835.805	39.34
836.241	50.34
836.677	57.04
837.112	64.04
837.548	68.14
837.984	89.84
838.42	138.34
838.856	335.54
839.292	1078.44
839.727	1774.84
840.163	811.14
840.599	645.74
841.034	1491.44
841.47	1661.84
841.906	595.04
842.341	242.74
842.777	140.84
843.212	147.04
843.648	145.44
844.083	76.24
844.519	62.34
844.954	51.44
845.39	40.04
845.825	33.34
846.261	37.34
846.696	35.74
847.131	43.24
847.566	41.34
848.002	36.64
848.437	35.64
848.872	42.34
849.307	39.14
849.742	48.74
850.177	118.74
850.613	390.54
851.048	660.94
851.483	286.44
851.918	113.04
852.353	61.34
852.788	40.84
853.223	37.54
853.657	39.54
854.092	32.04
854.527	25.04
854.962	27.34
855.397	30.74
855.832	35.94
856.266	30.14
856.701	31.54
857.136	25.64
857.57	31.14
858.005	35.94
858.44	47.54
858.874	23.54
859.309	37.34
859.743	22.74
860.178	34.74
860.612	29.54
861.047	35.94
861.481	50.44
861.915	62.14
862.35	36.94
862.784	25.24
863.218	25.94
863.653	20.84
864.087	29.14
864.521	38.44
864.955	43.24
865.39	103.74
865.824	132.94
866.258	86.54
866.692	135.54
867.126	161.44
867.56	91.34
867.994	42.44
868.428	25.94
868.862	34.14
869.296	40.44
869.73	47.54
870.164	47.14
870.598	45.54
871.031	31.94
871.465	24.14
871.899	19.04
872.333	16.54
872.766	22.44
873.2	15.24
873.634	18.74
874.067	17.84
874.501	18.24
874.935	23.74
875.368	22.04
875.802	15.24
876.235	19.44
876.669	18.14
877.102	19.04
877.535	17.94
877.969	15.34
878.402	19.04
878.836	8.14
879.269	19.74
879.702	18.64
880.135	14.24
880.569	14.64
881.002	20.24
881.435	6.54
881.868	12.34
882.301	16.44
882.734	10.54
883.167	16.14
883.601	7.94
884.034	19.24
884.467	9.64
884.899	17.84
885.332	4.34
885.765	8.54
886.198	10.14
886.631	11.94
887.064	12.44
887.497	10.64
887.929	13.24
888.362	12.94
888.795	8.54
889.228	9.64
889.66	14.74
890.093	6.54
890.526	6.24
890.958	11.84
891.391	7.34
891.823	13.04
892.256	10.24
892.688	11.14
893.121	11.24
893.553	7.44
893.985	12.14
894.418	12.54
894.85	13.14
895.282	8.94
895.715	10.14
896.147	9.44
896.579	7.64
897.011	7.74
897.444	7.74
897.876	6.34
898.308	9.34
898.74	6.74
899.172	8.94
899.604	20.24
900.036	21.24
900.468	9.14
900.9	11.14
901.332	13.24
901.764	10.24
902.196	13.84
902.628	12.84
903.06	12.14
903.491	22.04
903.923	16.04
904.355	13.84
904.787	13.24
905.218	11.44
905.65	14.34
906.082	7.84
906.513	4.64
906.945	8.04
907.376	4.94
907.808	10.24
908.239	8.14
908.671	14.54
909.102	12.44
909.534	14.34
909.965	30.94
910.397	66.44
910.828	233.44
911.259	367.24
911.691	164.84
912.122	73.44
912.553	35.84
912.984	27.64
913.415	19.74
913.847	20.34
914.278	4.74
914.709	10.44
915.14	15.44
915.571	10.14
916.002	2.74
916.433	8.84
916.864	5.64
917.295	12.34
917.726	11.04
918.157	11.04
918.587	22.74
919.018	18.04
919.449	21.24
919.88	13.24
920.311	20.44
920.741	27.54
921.172	119.94
921.603	122.24
922.033	55.44
922.464	37.54
922.895	15.34
923.325	11.54
923.756	10.64
924.186	11.84
924.617	13.34
925.047	12.84
925.478	12.64
925.908	13.14
926.338	1.24
926.769	9.94
927.199	5.84
927.629	5.74
928.06	15.34
928.49	13.04
928.92	8.34
929.35	11.94
929.78	4.44
930.21	3.24
930.641	3.04
931.071	6.74
931.501	2.04
931.931	6.14
932.361	7.54
932.791	-2.36
933.221	2.24
933.651	1.74
934.08	11.04
934.51	26.14
934.94	7.74
935.37	4.34
935.8	11.04
936.229	7.24
936.659	5.44
937.089	0.84
937.519	10.64
937.948	19.94
938.378	13.04
938.807	2.24
939.237	2.14
939.666	4.14
940.096	-5.86
940.525	-2.06
940.955	-0.46
941.384	3.24
941.814	-7.96
942.243	-4.26
942.672	7.04
943.102	-1.26
943.531	1.44
943.96	5.74
944.39	2.74
944.819	-0.36
945.248	-3.36
945.677	-2.26
946.106	0.14
946.535	9.34
946.964	-1.56
947.393	-0.56
947.822	0.54
948.251	-7.26
948.68	-0.26
949.109	0.24
949.538	4.54
949.967	-2.66
950.396	-2.56
950.825	1.74
951.254	-1.36
951.682	-6.86
952.111	-1.96
952.54	1.34
952.969	-4.96
953.397	-5.66
953.826	-3.26
954.254	-1.96
954.683	0.14
955.112	-2.46
955.54	-3.46
955.969	-0.96
956.397	-2.26
956.826	-9.66
957.254	0.04
957.682	0.94
958.111	6.74
958.539	-4.16
958.967	2.24
959.396	2.94
959.824	3.54
960.252	1.54
960.68	-4.66
961.109	-0.56
961.537	-0.26
961.965	-4.06
962.393	-2.76
962.821	-7.96
963.249	1.04
963.677	4.64
964.105	-0.46
964.533	26.44
964.961	26.84
965.389	12.84
965.817	5.84
966.245	5.54
966.672	-0.46
967.1	-2.36
967.528	-4.56
967.956	-2.76
968.383	-2.16
968.811	-4.06
969.239	-2.86
969.666	-10.26
970.094	-1.36
970.522	1.34
970.949	-1.66
971.377	-9.66
971.804	-9.16
972.232	-2.46
972.659	-1.76
973.087	-6.36
973.514	-4.46
973.941	-7.46
974.369	-3.56
974.796	0.04
975.223	-1.86
975.651	-3.66
976.078	-6.76
976.505	-7.86
976.932	-3.56
977.359	14.64
977.786	10.84
978.214	1.14
978.641	-11.86
979.068	-4.56
979.495	-4.46
979.922	-4.16
980.349	-3.06
980.776	6.64
981.202	-3.76
981.629	5.34
982.056	3.74
982.483	-3.86
982.91	3.04
983.337	-6.56
983.763	-0.36
984.19	-4.26
984.617	-5.16
985.043	-7.86
985.47	-6.76
985.897	-8.96
986.323	-5.76
986.75	3.14
987.176	-1.76
987.603	1.04
988.029	-3.46
988.456	-3.56
988.882	2.64
989.308	-7.66
989.735	0.04
990.161	-3.06
990.587	-10.56
991.014	2.54
991.44	4.64
991.866	-3.16
992.292	-8.86
992.719	-5.16
993.145	0.04
993.571	-5.56
993.997	-4.26
994.423	-5.26
994.849	-2.96
995.275	0.04
995.701	-0.86
996.127	-5.36
996.553	1.74
996.979	-8.16
997.405	-1.86
997.83	-4.06
998.256	-6.76
998.682	-2.76
999.108	-6.86
999.534	1.34
999.959	-3.86
1000.385	-0.46
1000.811	0.34
1001.236	-8.46
1001.662	-3.26
1002.087	-2.46
1002.513	-0.56
1002.938	-0.86
1003.364	2.44
1003.789	-3.66
1004.215	1.14
1004.64	-4.06
1005.066	-0.76
1005.491	-1.86
1005.916	-4.66
1006.342	-6.16
1006.767	-7.56
1007.192	1.84
1007.617	-5.76
1008.042	-6.86
1008.468	-4.06
1008.893	0.34
1009.318	-4.36
1009.743	-1.26
1010.168	-0.16
1010.593	-0.76
1011.018	-7.36
1011.443	-11.16
1011.868	0.84
1012.293	-0.36
1012.718	-7.76
1013.143	2.14
1013.567	-4.76
1013.992	-5.26
1014.417	-9.26
1014.842	4.24
1015.267	0.84
1015.691	-6.36
1016.116	-0.96
1016.541	0.54
1016.965	6.24
1017.39	3.14
1017.814	-5.66
1018.239	-1.56
1018.663	-2.66
1019.088	-8.16
1019.512	-2.86
1019.937	-2.76
1020.361	-4.86
1020.785	-7.66
1021.21	-7.46
1021.634	-3.76
1022.058	2.04
1022.483	3.94
1022.907	-10.46
1023.331	-7.16
1023.755	1.84
1024.179	-4.16
1024.604	-0.36
1025.028	-3.76
1025.452	-6.96
1025.876	-4.96
1026.3	1.84
1026.724	-13.36
1027.148	-11.26
1027.572	-8.76
1027.996	-1.76
1028.42	-4.86
1028.843	-7.96
1029.267	-9.96
1029.691	-1.76
1030.115	-7.36
1030.539	-7.46
1030.962	-3.56
1031.386	-11.86
1031.81	-3.96
1032.233	-5.36
1032.657	-3.36
1033.08	-1.36
1033.504	-6.26
1033.927	-1.86
1034.351	1.54
1034.774	-5.96
1035.198	-2.86
1035.621	-6.26
1036.045	-2.36
1036.468	1.04
1036.891	-8.66
1037.315	-9.16
1037.738	-11.06
1038.161	2.14
1038.584	-5.06
1039.008	-7.76
1039.431	-1.56
1039.854	-4.36
1040.277	-5.46
1040.7	-10.36
1041.123	2.14
1041.546	-7.06
1041.969	-11.46
1042.392	-5.76
1042.815	-0.96
1043.238	2.24
1043.661	1.84
1044.084	-8.46
1044.507	-1.16
1044.93	-1.06
1045.352	-6.46
1045.775	-6.06
1046.198	2.54
1046.621	-0.46
1047.043	1.94
1047.466	-0.06
1047.889	-1.66
1048.311	-4.66
1048.734	-0.86
1049.156	-4.76
1049.579	-2.56
1050.001	-3.76
1050.424	0.84
1050.846	-7.76
1051.269	-2.56
1051.691	-11.66
1052.113	-4.56
1052.536	-4.96
1052.958	-3.46
1053.38	-5.16
1053.802	-14.26
1054.225	-1.56
1054.647	-13.26
1055.069	-6.06
1055.491	-3.06
1055.913	-8.16
1056.335	-1.56
1056.757	-4.26
1057.179	-4.36
1057.601	-1.76
1058.023	-6.96
1058.445	-2.56
1058.867	-7.86
1059.289	-2.76
1059.711	-8.76
1060.133	1.44
1060.555	-4.86
1060.976	-12.46
1061.398	-4.26
1061.82	-8.46
1062.241	-10.36
1062.663	-7.66
1063.085	-0.76
1063.506	-6.06
1063.928	-3.76
1064.35	-4.56
1064.771	-10.16
1065.193	-0.46
1065.614	-5.96
1066.035	-3.96
1066.457	-1.16
1066.878	-0.06
1067.3	-4.06
1067.721	-5.66
1068.142	-9.36
1068.564	-8.06
1068.985	-5.46
1069.406	-0.36
1069.827	-2.56
1070.248	-2.26
1070.67	-6.76
1071.091	-6.96
1071.512	-1.36
1071.933	-6.66
1072.354	-3.86
1072.775	-5.06
1073.196	-13.46
1073.617	-5.76
1074.038	-7.66
1074.459	-3.46
1074.88	-11.06
1075.3	0.94
1075.721	-8.16
1076.142	-0.06
1076.563	-3.06
1076.983	-10.56
1077.404	-8.66
1077.825	-11.56
1078.246	-8.16
1078.666	-7.96
1079.087	-2.96
1079.507	-12.56
1079.928	2.04
1080.348	1.94
1080.769	-8.56
1081.189	-1.66
1081.61	-2.76
1082.03	-3.46
1082.451	-3.76
1082.871	-3.86
1083.291	-9.26
1083.711	-10.16
1084.132	-6.96
1084.552	-6.46
1084.972	-2.46
1085.392	-9.16
1085.813	-11.86
1086.233	-4.56
1086.653	-4.16
1087.073	3.04
1087.493	-8.06
1087.913	-6.16
1088.333	-3.26
1088.753	-4.06
1089.173	3.34
1089.593	-11.46
1090.013	-1.46
1090.433	-0.46
1090.852	-4.76
1091.272	0.24
1091.692	-0.76
1092.112	-4.06
1092.531	-13.26
1092.951	-11.96
1093.371	-1.96
1093.79	-3.86
1094.21	-7.06
1094.63	-9.56
1095.049	-6.96
1095.469	-1.36
1095.888	1.84
1096.308	0.34
1096.727	3.84
1097.146	-9.66
1097.566	-0.76
1097.985	-5.56
1098.405	-0.16
1098.824	-5.16
1099.243	-8.26
1099.662	-5.76
1100.082	-2.96
1100.501	-2.26
1100.92	-4.46
1101.339	-1.76
1101.758	-8.46
