Data from 20171114-ORNL-Ar_H_NY_Subt18_08-04-59-933.txt Node
Date: Tue Nov 14 08:04:59 EST 2017
User: Ender
Spectrometer: HR+D1039
Trigger mode: 0
Integration Time (sec): 2.730000E-2
Scans to average: 10
Electric dark correction enabled: true
Nonlinearity correction enabled: false
Boxcar width: 0
XAxis mode: Wavelengths
Number of Pixels in Spectrum: 2048
>>>>>Begin Spectral Data<<<<<
187.836	-5.45
188.309	-5.45
188.782	-5.45
189.255	-0.05
189.728	-1.85
190.201	9.05
190.674	-0.65
191.147	0.95
191.619	-7.35
192.092	-3.25
192.565	3.95
193.038	2.05
193.511	0.55
193.984	0.35
194.456	0.25
194.929	-4.75
195.402	4.35
195.874	1.85
196.347	2.35
196.82	-7.25
197.292	5.95
197.765	-2.05
198.237	-5.75
198.71	2.55
199.182	-1.55
199.655	4.15
200.127	-1.85
200.6	-5.45
201.072	-5.95
201.544	-2.95
202.017	0.45
202.489	7.25
202.961	1.65
203.433	-6.85
203.906	-6.25
204.378	-10.25
204.85	-4.75
205.322	-8.45
205.794	-2.25
206.266	0.35
206.739	-4.55
207.211	6.35
207.683	-9.55
208.155	-6.55
208.627	-6.55
209.099	-0.45
209.57	-8.55
210.042	-2.85
210.514	-3.85
210.986	-0.75
211.458	-7.65
211.93	-4.45
212.402	4.25
212.873	-0.25
213.345	-8.25
213.817	-9.35
214.288	-0.15
214.76	-15.55
215.232	0.35
215.703	1.45
216.175	-1.35
216.646	2.15
217.118	-7.55
217.589	-5.15
218.061	-2.85
218.532	-0.45
219.004	2.45
219.475	-4.65
219.946	-5.75
220.418	-5.95
220.889	5.05
221.36	-2.55
221.832	-2.05
222.303	-14.25
222.774	-3.65
223.245	-11.75
223.717	-4.25
224.188	-3.95
224.659	-7.55
225.13	-5.65
225.601	-2.35
226.072	0.95
226.543	-4.15
227.014	-0.45
227.485	0.95
227.956	-3.45
228.427	1.15
228.898	7.75
229.369	2.15
229.839	-1.65
230.31	-6.65
230.781	5.85
231.252	-1.15
231.722	-2.05
232.193	-1.85
232.664	-1.65
233.135	3.65
233.605	-2.25
234.076	-8.15
234.546	2.45
235.017	3.35
235.487	3.85
235.958	2.05
236.428	-3.85
236.899	5.25
237.369	9.95
237.84	3.15
238.31	11.45
238.78	6.05
239.251	2.65
239.721	6.45
240.191	1.95
240.662	4.25
241.132	2.45
241.602	-5.15
242.072	6.25
242.542	6.55
243.013	6.85
243.483	12.05
243.953	7.15
244.423	-0.75
244.893	5.25
245.363	3.35
245.833	4.35
246.303	-2.85
246.773	10.75
247.243	6.65
247.712	9.75
248.182	17.55
248.652	10.55
249.122	-2.35
249.592	11.05
250.061	28.65
250.531	36.05
251.001	18.35
251.471	25.15
251.94	20.05
252.41	13.95
252.879	4.55
253.349	12.55
253.818	15.55
254.288	6.95
254.757	3.35
255.227	0.55
255.696	3.85
256.166	11.45
256.635	9.35
257.105	12.85
257.574	10.25
258.043	12.05
258.513	16.45
258.982	17.95
259.451	5.65
259.92	20.35
260.389	12.85
260.859	21.35
261.328	14.75
261.797	18.05
262.266	9.15
262.735	22.25
263.204	6.05
263.673	6.55
264.142	6.95
264.611	-3.55
265.08	0.05
265.549	1.85
266.018	11.65
266.487	1.95
266.955	0.35
267.424	3.65
267.893	8.95
268.362	9.15
268.83	11.75
269.299	14.55
269.768	10.15
270.236	14.55
270.705	0.85
271.174	5.65
271.642	13.35
272.111	15.95
272.579	23.55
273.048	27.55
273.516	34.85
273.985	32.05
274.453	27.45
274.922	22.85
275.39	12.35
275.858	4.65
276.327	10.15
276.795	18.85
277.263	13.95
277.731	36.85
278.2	61.85
278.668	62.05
279.136	52.05
279.604	26.35
280.072	15.15
280.54	8.85
281.008	10.45
281.477	18.65
281.945	14.45
282.413	20.75
282.881	18.15
283.348	5.75
283.816	21.25
284.284	20.95
284.752	22.05
285.22	23.15
285.688	21.35
286.156	24.95
286.623	48.35
287.091	63.65
287.559	31.85
288.026	24.45
288.494	17.45
288.962	9.85
289.429	10.35
289.897	15.65
290.364	19.05
290.832	17.45
291.3	19.75
291.767	21.65
292.234	24.25
292.702	19.45
293.169	27.95
293.637	27.15
294.104	21.95
294.571	7.45
295.039	17.85
295.506	24.35
295.973	19.55
296.44	20.85
296.908	18.95
297.375	30.35
297.842	17.15
298.309	20.75
298.776	15.95
299.243	27.75
299.71	17.65
300.177	25.05
300.644	25.05
301.111	24.05
301.578	30.55
302.045	18.25
302.512	27.35
302.979	27.55
303.446	24.75
303.913	25.65
304.379	24.65
304.846	26.35
305.313	27.35
305.78	27.65
306.246	30.35
306.713	31.25
307.18	30.05
307.646	33.75
308.113	32.05
308.579	29.05
309.046	33.25
309.512	30.75
309.979	20.15
310.445	26.85
310.912	28.45
311.378	34.15
311.845	28.05
312.311	30.65
312.777	36.85
313.244	37.65
313.71	37.75
314.176	35.25
314.642	31.45
315.109	34.85
315.575	36.15
316.041	43.75
316.507	34.35
316.973	41.55
317.439	39.75
317.905	37.75
318.371	39.25
318.837	36.45
319.303	40.55
319.769	41.75
320.235	34.05
320.701	42.05
321.167	38.55
321.633	38.65
322.099	45.25
322.564	52.55
323.03	40.15
323.496	47.15
323.962	45.55
324.427	43.85
324.893	44.65
325.359	42.85
325.824	42.95
326.29	35.25
326.755	44.85
327.221	43.25
327.686	47.35
328.152	50.15
328.617	46.05
329.083	45.15
329.548	53.05
330.014	52.65
330.479	39.15
330.944	45.55
331.41	42.65
331.875	46.25
332.34	49.65
332.805	55.15
333.271	53.65
333.736	40.95
334.201	59.25
334.666	54.65
335.131	57.85
335.596	54.45
336.061	60.15
336.526	43.85
336.991	51.95
337.456	54.35
337.921	56.55
338.386	44.75
338.851	53.35
339.316	51.25
339.781	51.65
340.246	58.05
340.711	55.05
341.175	57.95
341.64	49.35
342.105	50.05
342.569	60.75
343.034	66.75
343.499	64.55
343.963	58.25
344.428	66.05
344.893	57.65
345.357	60.25
345.822	64.95
346.286	76.15
346.751	73.85
347.215	68.05
347.679	78.45
348.144	98.85
348.608	85.75
349.073	70.85
349.537	76.95
350.001	85.25
350.465	89.85
350.93	85.85
351.394	83.55
351.858	75.65
352.322	91.75
352.786	92.75
353.25	101.85
353.715	112.55
354.179	100.95
354.643	124.35
355.107	126.45
355.571	110.95
356.035	105.35
356.498	122.35
356.962	130.05
357.426	128.45
357.89	118.75
358.354	91.65
358.818	83.05
359.281	82.45
359.745	78.45
360.209	80.25
360.673	78.95
361.136	84.65
361.6	80.35
362.064	83.25
362.527	83.25
362.991	93.85
363.454	82.75
363.918	77.45
364.381	81.15
364.845	79.75
365.308	93.85
365.772	91.05
366.235	92.35
366.698	84.45
367.162	87.85
367.625	91.35
368.088	85.95
368.552	86.65
369.015	84.15
369.478	101.75
369.941	103.45
370.404	98.25
370.867	109.35
371.331	106.75
371.794	111.75
372.257	117.05
372.72	115.35
373.183	104.35
373.646	104.55
374.109	99.15
374.572	106.75
375.035	108.85
375.497	110.35
375.96	112.05
376.423	106.05
376.886	111.95
377.349	110.95
377.811	99.15
378.274	109.25
378.737	107.65
379.199	111.85
379.662	113.85
380.125	115.45
380.587	117.35
381.05	126.75
381.512	126.15
381.975	133.45
382.437	128.65
382.9	129.65
383.362	128.45
383.825	146.35
384.287	145.85
384.75	144.45
385.212	143.75
385.674	143.95
386.136	133.85
386.599	117.95
387.061	124.65
387.523	134.15
387.985	139.55
388.447	144.25
388.91	142.65
389.372	164.85
389.834	150.95
390.296	144.85
390.758	153.75
391.22	169.45
391.682	207.55
392.144	297.75
392.606	227.05
393.068	166.15
393.529	165.75
393.991	157.35
394.453	142.95
394.915	151.25
395.377	186.05
395.838	213.65
396.3	151.95
396.762	139.45
397.224	133.55
397.685	131.55
398.147	133.25
398.608	128.65
399.07	128.75
399.531	129.85
399.993	145.15
400.454	157.45
400.916	148.85
401.377	143.45
401.839	157.75
402.3	153.25
402.762	171.75
403.223	174.65
403.684	171.95
404.145	156.25
404.607	154.05
405.068	161.65
405.529	178.25
405.99	185.55
406.451	171.45
406.913	169.85
407.374	165.45
407.835	160.65
408.296	163.55
408.757	170.85
409.218	186.35
409.679	172.65
410.14	167.55
410.601	175.35
411.062	181.75
411.522	188.75
411.983	191.15
412.444	177.15
412.905	175.25
413.366	177.55
413.826	188.45
414.287	214.15
414.748	254.65
415.208	238.85
415.669	206.05
416.13	196.85
416.59	200.75
417.051	214.25
417.511	208.65
417.972	230.45
418.432	242.25
418.893	278.25
419.353	242.65
419.814	197.85
420.274	179.15
420.734	173.05
421.195	200.25
421.655	196.05
422.115	191.15
422.576	195.15
423.036	194.65
423.496	200.65
423.956	215.55
424.416	224.25
424.876	252.95
425.336	257.75
425.797	259.05
426.257	251.45
426.717	232.55
427.177	223.35
427.637	221.15
428.097	232.65
428.556	243.25
429.016	275.35
429.476	259.75
429.936	271.75
430.396	271.05
430.856	291.85
431.315	315.45
431.775	339.35
432.235	373.05
432.694	345.75
433.154	350.55
433.614	380.35
434.073	331.25
434.533	276.55
434.993	262.95
435.452	278.15
435.912	288.75
436.371	279.85
436.83	278.45
437.29	266.75
437.749	251.15
438.209	234.75
438.668	271.45
439.127	279.95
439.587	262.75
440.046	241.95
440.505	253.45
440.964	280.55
441.424	316.85
441.883	297.55
442.342	252.45
442.801	220.85
443.26	214.75
443.719	216.75
444.178	214.35
444.637	203.55
445.096	211.65
445.555	219.35
446.014	215.45
446.473	218.65
446.932	223.75
447.391	213.95
447.849	226.45
448.308	216.25
448.767	221.75
449.226	234.65
449.685	231.65
450.143	237.65
450.602	227.55
451.061	225.95
451.519	228.45
451.978	227.05
452.436	230.25
452.895	241.15
453.353	247.95
453.812	238.55
454.27	237.85
454.729	236.45
455.187	232.85
455.646	235.95
456.104	245.35
456.562	249.25
457.021	259.05
457.479	249.15
457.937	264.65
458.395	251.95
458.854	241.65
459.312	248.35
459.77	265.75
460.228	258.85
460.686	236.25
461.144	237.55
461.602	232.85
462.06	228.95
462.518	246.55
462.976	245.55
463.434	245.15
463.892	252.25
464.35	274.25
464.808	277.35
465.266	256.05
465.724	264.15
466.181	268.95
466.639	264.65
467.097	292.05
467.555	298.35
468.012	301.25
468.47	296.25
468.928	320.95
469.385	336.65
469.843	332.35
470.3	347.35
470.758	357.45
471.215	380.35
471.673	400.25
472.13	401.65
472.588	398.75
473.045	357.95
473.503	372.85
473.96	383.55
474.417	399.15
474.875	428.45
475.332	461.35
475.789	454.05
476.246	453.85
476.704	479.85
477.161	497.95
477.618	514.85
478.075	550.15
478.532	610.45
478.989	685.85
479.446	796.15
479.903	749.35
480.36	797.05
480.817	852.55
481.274	956.35
481.731	1051.65
482.188	1149.85
482.645	1288.95
483.102	1401.85
483.558	1522.45
484.015	1567.95
484.472	1554.55
484.929	1509.75
485.385	1456.45
485.842	1415.95
486.299	1351.95
486.755	1287.35
487.212	1083.25
487.668	914.45
488.125	832.15
488.582	766.75
489.038	738.15
489.494	699.55
489.951	676.25
490.407	668.95
490.864	642.55
491.32	634.45
491.776	625.95
492.233	630.35
492.689	596.65
493.145	591.45
493.602	578.95
494.058	605.05
494.514	608.45
494.97	621.65
495.426	636.55
495.882	608.75
496.338	597.85
496.794	613.45
497.251	614.85
497.707	635.55
498.163	632.15
498.618	633.55
499.074	635.45
499.53	660.75
499.986	674.95
500.442	637.85
500.898	623.25
501.354	607.95
501.809	622.45
502.265	628.45
502.721	653.35
503.177	659.75
503.632	646.65
504.088	659.95
504.543	691.15
504.999	703.15
505.455	646.75
505.91	621.35
506.366	615.85
506.821	616.55
507.277	616.35
507.732	615.55
508.187	608.45
508.643	621.25
509.098	620.15
509.553	645.25
510.009	647.55
510.464	663.55
510.919	673.65
511.375	678.65
511.83	685.45
512.285	712.95
512.74	746.65
513.195	767.35
513.65	740.65
514.105	756.25
514.56	760.15
515.015	773.65
515.47	785.05
515.925	781.25
516.38	777.75
516.835	780.95
517.29	767.85
517.745	761.65
518.2	749.35
518.655	731.55
519.109	732.15
519.564	729.15
520.019	715.25
520.474	711.45
520.928	709.75
521.383	706.95
521.838	699.65
522.292	693.15
522.747	691.95
523.201	690.65
523.656	672.45
524.11	673.45
524.565	677.55
525.019	677.25
525.474	685.55
525.928	681.65
526.382	681.95
526.837	680.05
527.291	683.65
527.745	684.65
528.2	684.55
528.654	667.35
529.108	671.65
529.562	677.55
530.016	671.35
530.47	680.85
530.925	679.15
531.379	674.65
531.833	700.55
532.287	680.05
532.741	687.65
533.195	681.35
533.649	698.05
534.103	693.45
534.556	698.95
535.01	700.05
535.464	689.55
535.918	699.05
536.372	691.95
536.826	697.25
537.279	683.05
537.733	693.55
538.187	690.05
538.64	694.15
539.094	708.45
539.548	714.05
540.001	702.85
540.455	705.65
540.908	713.75
541.362	713.55
541.815	723.95
542.269	732.65
542.722	738.05
543.175	751.95
543.629	750.15
544.082	767.15
544.536	763.75
544.989	760.35
545.442	767.25
545.895	755.45
546.349	753.05
546.802	767.45
547.255	768.05
547.708	782.95
548.161	790.55
548.614	797.85
549.067	810.75
549.52	792.15
549.973	765.85
550.426	771.65
550.879	759.85
551.332	769.15
551.785	783.55
552.238	785.35
552.691	794.75
553.144	799.85
553.596	812.25
554.049	841.75
554.502	868.05
554.955	876.35
555.407	880.35
555.86	868.55
556.313	865.45
556.765	855.95
557.218	847.65
557.67	853.25
558.123	845.65
558.576	832.75
559.028	853.95
559.48	859.65
559.933	838.45
560.385	804.25
560.838	780.75
561.29	757.95
561.742	753.15
562.195	725.35
562.647	736.15
563.099	738.35
563.551	732.15
564.004	749.15
564.456	741.65
564.908	732.75
565.36	724.95
565.812	709.05
566.264	704.35
566.716	697.25
567.168	693.05
567.62	695.45
568.072	673.35
568.524	671.25
568.976	658.65
569.428	646.35
569.88	647.15
570.332	654.45
570.784	645.15
571.235	653.65
571.687	666.05
572.139	669.55
572.59	689.35
573.042	675.75
573.494	675.65
573.945	681.85
574.397	646.75
574.849	664.75
575.3	669.75
575.752	657.75
576.203	644.75
576.655	649.65
577.106	645.05
577.557	643.55
578.009	643.45
578.46	634.75
578.912	631.55
579.363	630.95
579.814	636.05
580.265	635.45
580.717	638.55
581.168	642.75
581.619	646.25
582.07	650.95
582.521	642.55
582.972	635.65
583.423	643.35
583.875	647.55
584.326	672.35
584.777	710.45
585.227	783.65
585.678	874.75
586.129	949.85
586.58	1017.65
587.031	1111.55
587.482	1266.25
587.933	1443.05
588.384	1250.45
588.834	928.25
589.285	767.25
589.736	736.85
590.186	731.35
590.637	727.85
591.088	711.25
591.538	708.05
591.989	688.45
592.439	680.45
592.89	684.25
593.34	670.55
593.791	676.85
594.241	661.15
594.692	679.05
595.142	669.05
595.593	671.25
596.043	677.55
596.493	680.05
596.943	670.45
597.394	675.75
597.844	674.25
598.294	693.75
598.744	712.95
599.195	727.35
599.645	773.65
600.095	816.05
600.545	868.65
600.995	897.25
601.445	971.05
601.895	1025.05
602.345	1068.75
602.795	1051.05
603.245	1012.05
603.695	951.25
604.145	897.35
604.594	866.35
605.044	811.55
605.494	752.35
605.944	706.05
606.393	697.15
606.843	682.15
607.293	684.85
607.743	684.45
608.192	699.15
608.642	710.65
609.091	719.85
609.541	727.15
609.99	727.15
610.44	714.75
610.889	680.95
611.339	667.75
611.788	633.85
612.238	660.65
612.687	673.25
613.136	667.15
613.586	689.25
614.035	693.55
614.484	727.15
614.933	716.35
615.383	704.35
615.832	701.65
616.281	675.75
616.73	635.15
617.179	615.05
617.628	613.45
618.077	589.75
618.526	578.05
618.975	573.65
619.424	577.25
619.873	575.45
620.322	581.45
620.771	570.35
621.22	562.05
621.669	553.35
622.118	545.25
622.567	541.25
623.015	532.95
623.464	532.95
623.913	524.75
624.361	518.15
624.81	513.35
625.259	513.55
625.707	510.25
626.156	515.15
626.604	530.55
627.053	521.55
627.501	527.85
627.95	531.05
628.398	539.05
628.847	531.25
629.295	525.95
629.744	531.55
630.192	527.15
630.64	527.05
631.089	518.25
631.537	531.45
631.985	539.45
632.433	553.15
632.881	557.75
633.33	614.25
633.778	598.45
634.226	525.85
634.674	531.35
635.122	533.15
635.57	555.65
636.018	585.35
636.466	541.15
636.914	522.35
637.362	530.45
637.81	528.65
638.258	536.15
638.705	529.45
639.153	557.15
639.601	576.15
640.049	591.55
640.497	619.75
640.944	630.15
641.392	598.45
641.84	576.05
642.287	540.05
642.735	526.35
643.182	531.85
643.63	531.75
644.078	538.35
644.525	542.35
644.973	547.55
645.42	547.15
645.867	562.45
646.315	589.65
646.762	621.45
647.21	630.05
647.657	651.15
648.104	696.15
648.551	710.75
648.999	768.55
649.446	839.95
649.893	928.75
650.34	1054.25
650.787	1274.25
651.234	1575.65
651.682	2047.85
652.129	2790.85
652.576	4039.35
653.023	6003.45
653.47	8209.65
653.917	10387.35
654.363	12075.95
654.81	13527.55
655.257	12850.65
655.704	8389.35
656.151	4945.65
656.598	3193.65
657.044	2256.35
657.491	1716.45
657.938	1393.45
658.385	1152.55
658.831	1002.75
659.278	888.75
659.724	793.95
660.171	731.75
660.618	665.15
661.064	639.95
661.511	606.15
661.957	594.85
662.404	584.75
662.85	591.45
663.296	567.75
663.743	516.25
664.189	495.35
664.635	485.95
665.082	483.65
665.528	478.45
665.974	471.35
666.42	469.35
666.867	463.05
667.313	454.15
667.759	438.25
668.205	438.65
668.651	450.95
669.097	440.85
669.543	455.55
669.989	440.55
670.435	409.35
670.881	407.65
671.327	406.15
671.773	416.65
672.219	447.05
672.665	497.55
673.11	535.45
673.556	567.25
674.002	616.15
674.448	602.35
674.893	503.65
675.339	432.05
675.785	403.65
676.23	385.35
676.676	360.95
677.122	347.55
677.567	334.95
678.013	331.55
678.458	322.25
678.904	327.25
679.349	317.75
679.794	321.25
680.24	316.65
680.685	319.05
681.131	320.35
681.576	322.45
682.021	319.85
682.466	314.35
682.912	313.05
683.357	316.05
683.802	344.25
684.247	375.55
684.692	406.05
685.137	449.45
685.583	486.25
686.028	507.35
686.473	469.65
686.918	405.45
687.363	377.75
687.807	353.45
688.252	331.25
688.697	320.55
689.142	311.15
689.587	306.15
690.032	300.55
690.477	319.45
690.921	316.55
691.366	346.45
691.811	369.65
692.255	384.75
692.7	428.75
693.145	453.75
693.589	617.55
694.034	1005.75
694.478	1383.95
694.923	1603.75
695.367	2086.05
695.812	1079.15
696.256	456.65
696.701	336.75
697.145	310.95
697.59	297.85
698.034	293.85
698.478	303.75
698.922	298.05
699.367	294.45
699.811	306.05
700.255	321.25
700.699	343.35
701.143	383.45
701.588	429.95
702.032	467.35
702.476	466.75
702.92	443.65
703.364	441.35
703.808	560.15
704.252	908.05
704.696	1284.05
705.14	1513.25
705.584	1950.95
706.027	973.45
706.471	468.35
706.915	361.75
707.359	316.75
707.803	285.15
708.246	270.55
708.69	282.45
709.134	277.35
709.577	277.45
710.021	282.55
710.465	277.55
710.908	278.85
711.352	269.75
711.795	280.65
712.239	319.35
712.682	342.55
713.126	376.55
713.569	425.25
714.012	342.85
714.456	299.35
714.899	269.95
715.342	244.55
715.786	241.65
716.229	234.35
716.672	236.05
717.115	229.05
717.558	227.55
718.002	224.75
718.445	239.05
718.888	260.85
719.331	270.15
719.774	287.65
720.217	277.95
720.66	252.65
721.103	244.25
721.546	231.65
721.989	225.35
722.432	213.45
722.874	217.55
723.317	210.95
723.76	212.15
724.203	237.75
724.645	281.95
725.088	394.85
725.531	514.55
725.974	581.65
726.416	498.75
726.859	282.25
727.301	221.05
727.744	219.15
728.187	213.05
728.629	215.95
729.071	214.15
729.514	229.05
729.956	249.55
730.399	253.15
730.841	259.95
731.283	252.85
731.726	237.95
732.168	235.05
732.61	236.35
733.053	257.35
733.495	281.35
733.937	320.65
734.379	358.55
734.821	382.45
735.263	477.05
735.705	732.65
736.148	1374.05
736.59	2288.35
737.032	2792.55
737.474	2269.55
737.916	726.85
738.357	377.45
738.799	290.75
739.241	273.45
739.683	247.75
740.125	261.35
740.567	265.85
741.008	284.85
741.45	295.45
741.892	286.45
742.334	311.45
742.775	325.65
743.217	315.25
743.658	241.35
744.1	231.95
744.542	233.15
744.983	278.05
745.425	310.75
745.866	313.45
746.307	247.15
746.749	258.05
747.19	282.95
747.632	386.45
748.073	753.15
748.514	1621.95
748.956	2556.45
749.397	3193.55
749.838	2656.05
750.279	2720.95
750.72	1351.25
751.162	491.15
751.603	291.15
752.044	223.35
752.485	198.95
752.926	190.45
753.367	181.85
753.808	178.25
754.249	171.15
754.69	168.55
755.131	165.85
755.572	162.65
756.013	154.65
756.453	165.15
756.894	165.15
757.335	172.35
757.776	170.75
758.216	180.85
758.657	180.85
759.098	180.65
759.538	203.85
759.979	242.85
760.42	319.05
760.86	611.75
761.301	1564.05
761.741	3888.55
762.182	5932.85
762.622	4144.25
763.063	1177.65
763.503	474.35
763.943	310.75
764.384	299.65
764.824	365.55
765.264	408.05
765.705	273.85
766.145	186.45
766.585	171.15
767.025	167.05
767.465	167.35
767.906	217.65
768.346	289.35
768.786	306.65
769.226	236.05
769.666	273.75
770.106	538.45
770.546	1349.35
770.986	2404.35
771.426	2168.15
771.866	714.45
772.306	298.55
772.745	189.45
773.185	154.85
773.625	158.85
774.065	146.55
774.505	174.05
774.944	270.45
775.384	601.85
775.824	1118.05
776.263	1109.05
776.703	465.55
777.142	202.05
777.582	139.85
778.021	121.35
778.461	126.75
778.9	130.35
779.34	119.75
779.779	103.95
780.219	95.15
780.658	100.95
781.097	101.15
781.537	95.75
781.976	98.75
782.415	94.75
782.855	96.75
783.294	88.05
783.733	96.75
784.172	98.75
784.611	92.35
785.05	95.55
785.489	103.45
785.928	105.05
786.367	109.25
786.806	107.85
787.245	122.55
787.684	121.05
788.123	132.55
788.562	120.45
789.001	111.55
789.44	102.75
789.879	108.95
790.317	105.25
790.756	116.05
791.195	111.55
791.634	128.35
792.072	176.35
792.511	313.95
792.95	861.25
793.388	1914.35
793.827	1790.45
794.265	605.05
794.704	250.05
795.142	171.65
795.581	130.15
796.019	123.45
796.458	115.65
796.896	100.95
797.334	116.15
797.773	140.45
798.211	196.15
798.649	381.25
799.087	885.35
799.526	1414.75
799.964	1792.25
800.402	1843.85
800.84	688.95
801.278	279.55
801.716	166.95
802.154	133.15
802.592	131.85
803.03	122.85
803.468	121.25
803.906	123.35
804.344	131.15
804.782	125.15
805.22	120.25
805.658	110.65
806.096	134.35
806.533	141.85
806.971	152.65
807.409	197.65
807.847	279.15
808.284	563.65
808.722	1625.35
809.16	2991.15
809.597	2742.35
810.035	4834.65
810.472	5345.85
810.91	1899.15
811.347	710.15
811.785	358.15
812.222	233.45
812.66	182.55
813.097	150.85
813.535	127.95
813.972	117.35
814.409	113.65
814.846	99.95
815.284	101.45
815.721	90.45
816.158	94.35
816.595	109.75
817.032	163.15
817.47	182.15
817.907	145.75
818.344	137.55
818.781	105.15
819.218	93.05
819.655	108.85
820.092	171.45
820.529	194.45
820.966	157.95
821.403	116.15
821.839	100.75
822.276	92.45
822.713	105.45
823.15	113.55
823.587	102.75
824.023	121.85
824.46	256.25
824.897	783.35
825.333	1242.45
825.77	526.05
826.206	203.85
826.643	123.05
827.08	86.65
827.516	73.55
827.953	72.95
828.389	75.75
828.825	62.15
829.262	62.45
829.698	61.55
830.135	62.25
830.571	58.55
831.007	59.25
831.443	58.95
831.88	62.25
832.316	52.05
832.752	51.65
833.188	55.55
833.624	56.45
834.06	58.35
834.497	65.45
834.933	62.05
835.369	66.85
835.805	59.25
836.241	61.85
836.677	75.15
837.112	84.05
837.548	92.85
837.984	114.05
838.42	171.55
838.856	424.95
839.292	1331.75
839.727	2112.35
840.163	974.45
840.599	792.65
841.034	1813.15
841.47	1958.55
841.906	712.05
842.341	292.65
842.777	203.95
843.212	286.05
843.648	283.35
844.083	137.75
844.519	87.95
844.954	66.25
845.39	53.85
845.825	54.35
846.261	49.25
846.696	47.05
847.131	48.25
847.566	53.05
848.002	50.15
848.437	46.95
848.872	52.15
849.307	59.55
849.742	69.75
850.177	158.95
850.613	489.25
851.048	793.95
851.483	354.65
851.918	137.25
852.353	76.05
852.788	53.35
853.223	44.15
853.657	45.65
854.092	45.55
854.527	33.85
854.962	38.35
855.397	44.05
855.832	44.35
856.266	42.45
856.701	40.55
857.136	33.25
857.57	38.55
858.005	48.95
858.44	52.35
858.874	39.65
859.309	44.35
859.743	32.55
860.178	46.85
860.612	37.35
861.047	44.55
861.481	56.25
861.915	57.85
862.35	48.25
862.784	33.75
863.218	37.55
863.653	27.55
864.087	41.95
864.521	46.65
864.955	62.75
865.39	140.25
865.824	155.25
866.258	103.85
866.692	147.55
867.126	161.05
867.56	101.05
867.994	51.35
868.428	31.65
868.862	37.85
869.296	46.95
869.73	50.95
870.164	49.55
870.598	44.95
871.031	32.55
871.465	26.95
871.899	27.45
872.333	17.95
872.766	28.75
873.2	21.55
873.634	29.15
874.067	20.55
874.501	25.45
874.935	30.25
875.368	29.05
875.802	22.45
876.235	22.75
876.669	23.35
877.102	20.25
877.535	22.65
877.969	18.65
878.402	25.25
878.836	19.15
879.269	15.25
879.702	23.55
880.135	19.35
880.569	18.25
881.002	23.45
881.435	23.95
881.868	15.25
882.301	21.85
882.734	13.15
883.167	20.35
883.601	17.05
884.034	18.45
884.467	15.95
884.899	18.75
885.332	12.15
885.765	8.85
886.198	12.85
886.631	15.75
887.064	16.65
887.497	17.05
887.929	22.15
888.362	11.45
888.795	11.65
889.228	8.95
889.66	18.05
890.093	16.35
890.526	14.85
890.958	15.25
891.391	16.35
891.823	19.75
892.256	19.15
892.688	13.45
893.121	18.25
893.553	15.15
893.985	27.85
894.418	18.15
894.85	18.55
895.282	17.75
895.715	14.35
896.147	18.65
896.579	18.15
897.011	11.15
897.444	13.45
897.876	12.95
898.308	18.45
898.74	18.55
899.172	13.15
899.604	18.15
900.036	14.75
900.468	8.65
900.9	19.85
901.332	17.25
901.764	9.25
902.196	19.45
902.628	16.35
903.06	9.15
903.491	27.65
903.923	22.75
904.355	17.45
904.787	25.65
905.218	22.15
905.65	21.45
906.082	10.05
906.513	6.95
906.945	14.15
907.376	7.65
907.808	17.65
908.239	16.15
908.671	17.25
909.102	21.85
909.534	22.25
909.965	44.75
910.397	86.75
910.828	282.55
911.259	440.05
911.691	199.85
912.122	95.35
912.553	49.75
912.984	34.25
913.415	26.55
913.847	19.35
914.278	14.65
914.709	10.95
915.14	19.05
915.571	17.05
916.002	10.95
916.433	22.65
916.864	13.95
917.295	8.05
917.726	19.35
918.157	18.55
918.587	28.15
919.018	17.55
919.449	21.55
919.88	25.55
920.311	26.95
920.741	41.65
921.172	148.25
921.603	133.05
922.033	63.05
922.464	38.05
922.895	14.15
923.325	22.25
923.756	16.35
924.186	16.35
924.617	22.75
925.047	35.55
925.478	54.85
925.908	47.65
926.338	22.25
926.769	16.65
927.199	15.15
927.629	4.75
928.06	18.95
928.49	16.05
928.92	13.95
929.35	4.85
929.78	11.55
930.21	9.85
930.641	12.15
931.071	10.15
931.501	2.35
931.931	8.25
932.361	4.55
932.791	3.65
933.221	2.25
933.651	4.65
934.08	19.05
934.51	32.85
934.94	9.05
935.37	13.25
935.8	12.35
936.229	9.15
936.659	10.05
937.089	-1.05
937.519	12.95
937.948	19.55
938.378	21.65
938.807	7.05
939.237	7.65
939.666	5.05
940.096	-1.95
940.525	6.55
940.955	4.55
941.384	-1.85
941.814	-3.95
942.243	-0.05
942.672	1.15
943.102	-0.95
943.531	2.15
943.96	2.55
944.39	1.95
944.819	2.65
945.248	4.85
945.677	2.05
946.106	7.65
946.535	5.55
946.964	-0.95
947.393	4.45
947.822	5.05
948.251	0.05
948.68	5.35
949.109	7.95
949.538	7.75
949.967	-1.45
950.396	-1.55
950.825	2.05
951.254	5.15
951.682	-9.95
952.111	-0.95
952.54	5.05
952.969	-6.55
953.397	-5.85
953.826	2.05
954.254	0.15
954.683	5.05
955.112	-7.05
955.54	1.75
955.969	5.55
956.397	-1.05
956.826	1.15
957.254	4.55
957.682	5.35
958.111	3.05
958.539	3.05
958.967	1.65
959.396	-8.55
959.824	-0.55
960.252	4.55
960.68	-5.05
961.109	-3.75
961.537	-3.65
961.965	0.15
962.393	-1.65
962.821	-3.85
963.249	1.65
963.677	-0.05
964.105	10.25
964.533	38.85
964.961	39.35
965.389	19.55
965.817	0.25
966.245	4.55
966.672	1.75
967.1	-6.15
967.528	-1.25
967.956	-3.65
968.383	6.55
968.811	-2.45
969.239	1.95
969.666	-0.75
970.094	6.05
970.522	-0.95
970.949	0.05
971.377	1.35
971.804	-2.85
972.232	1.35
972.659	-4.65
973.087	-2.95
973.514	-3.95
973.941	-6.95
974.369	-1.75
974.796	4.55
975.223	0.05
975.651	-4.45
976.078	4.55
976.505	0.45
976.932	2.05
977.359	14.45
977.786	13.35
978.214	2.25
978.641	-3.75
979.068	-5.55
979.495	-5.95
979.922	-1.05
980.349	-2.25
980.776	4.55
981.202	-4.05
981.629	7.15
982.056	3.95
982.483	1.65
982.91	2.55
983.337	-8.25
983.763	1.35
984.19	-2.15
984.617	-3.15
985.043	-4.25
985.47	0.85
985.897	-6.05
986.323	-4.05
986.75	6.45
987.176	3.25
987.603	-1.75
988.029	2.05
988.456	-2.15
988.882	-3.15
989.308	-4.35
989.735	-8.95
990.161	0.85
990.587	-8.75
991.014	4.45
991.44	1.05
991.866	-2.95
992.292	-6.55
992.719	0.25
993.145	6.85
993.571	-0.45
993.997	-4.55
994.423	-3.15
994.849	-4.75
995.275	-0.35
995.701	-3.15
996.127	-4.65
996.553	5.55
996.979	-2.35
997.405	-1.85
997.83	-7.55
998.256	-3.75
998.682	-0.95
999.108	-5.05
999.534	-0.55
999.959	-5.05
1000.385	-4.75
1000.811	-2.95
1001.236	-5.05
1001.662	-5.15
1002.087	-7.05
1002.513	-6.45
1002.938	-2.25
1003.364	-0.65
1003.789	-0.65
1004.215	2.05
1004.64	-4.05
1005.066	-2.55
1005.491	2.95
1005.916	-1.85
1006.342	2.15
1006.767	-7.85
1007.192	7.05
1007.617	-1.55
1008.042	1.25
1008.468	-1.85
1008.893	-7.85
1009.318	-3.05
1009.743	-5.55
1010.168	1.95
1010.593	-4.25
1011.018	-7.05
1011.443	-0.45
1011.868	4.35
1012.293	-6.75
1012.718	-10.55
1013.143	-1.35
1013.567	0.35
1013.992	3.25
1014.417	-9.75
1014.842	3.45
1015.267	-5.65
1015.691	-1.85
1016.116	9.65
1016.541	0.05
1016.965	-2.35
1017.39	1.75
1017.814	-0.05
1018.239	0.25
1018.663	-8.15
1019.088	-8.75
1019.512	-1.35
1019.937	-5.85
1020.361	-0.65
1020.785	-10.55
1021.21	1.85
1021.634	-3.95
1022.058	-3.25
1022.483	6.95
1022.907	3.45
1023.331	-2.25
1023.755	0.65
1024.179	-6.55
1024.604	-3.05
1025.028	-4.45
1025.452	-0.65
1025.876	-4.65
1026.3	-2.95
1026.724	-11.35
1027.148	-1.35
1027.572	-9.15
1027.996	-6.05
1028.42	-2.85
1028.843	-3.75
1029.267	-1.85
1029.691	-2.45
1030.115	-0.75
1030.539	-5.05
1030.962	-4.95
1031.386	-10.35
1031.81	-3.25
1032.233	-0.95
1032.657	-6.85
1033.08	1.15
1033.504	0.05
1033.927	-0.55
1034.351	-0.35
1034.774	-4.95
1035.198	-2.65
1035.621	-7.65
1036.045	-4.65
1036.468	4.05
1036.891	-10.15
1037.315	-7.75
1037.738	-10.75
1038.161	-2.35
1038.584	-3.95
1039.008	-8.55
1039.431	-4.65
1039.854	-3.05
1040.277	-9.25
1040.7	-10.45
1041.123	-2.25
1041.546	-6.05
1041.969	-6.75
1042.392	-3.65
1042.815	-5.95
1043.238	-0.65
1043.661	0.05
1044.084	-9.25
1044.507	-5.75
1044.93	0.45
1045.352	-3.25
1045.775	-1.75
1046.198	5.75
1046.621	0.65
1047.043	-3.95
1047.466	4.35
1047.889	-0.35
1048.311	-6.95
1048.734	-3.45
1049.156	-3.75
1049.579	-0.55
1050.001	-3.05
1050.424	-2.55
1050.846	1.05
1051.269	-2.85
1051.691	-0.45
1052.113	-2.05
1052.536	1.45
1052.958	2.15
1053.38	-4.55
1053.802	-5.95
1054.225	-4.35
1054.647	-12.25
1055.069	0.25
1055.491	-2.25
1055.913	-9.85
1056.335	-0.05
1056.757	0.65
1057.179	-5.65
1057.601	-1.55
1058.023	-5.85
1058.445	-0.55
1058.867	-1.95
1059.289	3.75
1059.711	-3.55
1060.133	-5.25
1060.555	-3.15
1060.976	-6.65
1061.398	-2.45
1061.82	-7.55
1062.241	-3.75
1062.663	-11.05
1063.085	-2.95
1063.506	4.45
1063.928	-1.55
1064.35	-3.05
1064.771	-7.65
1065.193	-1.05
1065.614	-9.05
1066.035	-1.95
1066.457	-3.05
1066.878	1.75
1067.3	-8.65
1067.721	-3.25
1068.142	-7.25
1068.564	0.65
1068.985	-4.05
1069.406	-1.85
1069.827	2.75
1070.248	-4.45
1070.67	-15.45
1071.091	-7.45
1071.512	-10.15
1071.933	-6.15
1072.354	-6.65
1072.775	-5.25
1073.196	-5.65
1073.617	2.65
1074.038	-3.95
1074.459	0.25
1074.88	-8.95
1075.3	-1.45
1075.721	-5.35
1076.142	0.95
1076.563	0.45
1076.983	-9.15
1077.404	-5.45
1077.825	-11.35
1078.246	-0.75
1078.666	-10.85
1079.087	-4.65
1079.507	-6.45
1079.928	-2.15
1080.348	1.05
1080.769	-3.75
1081.189	-1.85
1081.61	-7.35
1082.03	0.55
1082.451	-2.15
1082.871	-5.15
1083.291	-2.65
1083.711	-2.55
1084.132	-8.25
1084.552	-6.05
1084.972	-5.05
1085.392	-11.75
1085.813	-13.95
1086.233	-8.05
1086.653	-2.75
1087.073	0.45
1087.493	-4.05
1087.913	-4.65
1088.333	-5.15
1088.753	-2.95
1089.173	0.95
1089.593	-4.95
1090.013	-1.95
1090.433	2.05
1090.852	-1.95
1091.272	-1.95
1091.692	-1.05
1092.112	-3.85
1092.531	-5.65
1092.951	-9.05
1093.371	-1.85
1093.79	2.65
1094.21	-11.75
1094.63	-0.45
1095.049	-6.85
1095.469	-5.15
1095.888	-1.15
1096.308	5.35
1096.727	2.85
1097.146	-9.95
1097.566	-2.25
1097.985	-5.15
1098.405	3.95
1098.824	-6.55
1099.243	-8.75
1099.662	-3.15
1100.082	-1.85
1100.501	-0.55
1100.92	-1.05
1101.339	-1.45
1101.758	-3.85
