Data from 20171114-ORNL-Ar_H_NY_Subt18_08-04-20-080.txt Node
Date: Tue Nov 14 08:04:20 EST 2017
User: Ender
Spectrometer: HR+D1039
Trigger mode: 0
Integration Time (sec): 2.730000E-2
Scans to average: 10
Electric dark correction enabled: true
Nonlinearity correction enabled: false
Boxcar width: 0
XAxis mode: Wavelengths
Number of Pixels in Spectrum: 2048
>>>>>Begin Spectral Data<<<<<
187.836	-5.1
188.309	-5.1
188.782	-5.1
189.255	3.5
189.728	-1.3
190.201	5.6
190.674	2.1
191.147	-1.6
191.619	-3.9
192.092	-1.8
192.565	-2.9
193.038	3.7
193.511	-2.8
193.984	4.5
194.456	-3
194.929	4.4
195.402	-0.3
195.874	-1.1
196.347	-0.3
196.82	-13
197.292	4.2
197.765	-2.6
198.237	-5.3
198.71	0.5
199.182	0.7
199.655	0.2
200.127	-0.7
200.6	-4.7
201.072	-3.3
201.544	-9.7
202.017	-3.3
202.489	6.8
202.961	4.1
203.433	-3.5
203.906	-8.8
204.378	-7.3
204.85	-5.4
205.322	-8.2
205.794	2.5
206.266	-6.6
206.739	-9
207.211	2.6
207.683	-11.9
208.155	-0.5
208.627	-2.8
209.099	-1.3
209.57	-5.4
210.042	-3
210.514	2.6
210.986	4.8
211.458	-4.1
211.93	-2.2
212.402	0.6
212.873	-3.9
213.345	-8.5
213.817	-8.8
214.288	-5.8
214.76	-13.3
215.232	-4.4
215.703	-5.8
216.175	-0.7
216.646	-5.7
217.118	-5.4
217.589	-9.2
218.061	1.9
218.532	-0.9
219.004	-7.2
219.475	-2
219.946	-4.3
220.418	-3.9
220.889	10
221.36	1.6
221.832	0.7
222.303	-5
222.774	-0.1
223.245	-10.8
223.717	-6.1
224.188	-4
224.659	-5.4
225.13	-3.2
225.601	-3.4
226.072	-0
226.543	-3.1
227.014	2.2
227.485	1.7
227.956	-6.6
228.427	-0.2
228.898	0.8
229.369	8.5
229.839	2
230.31	-4.5
230.781	6.6
231.252	-2.8
231.722	-1.2
232.193	-1.6
232.664	3.3
233.135	4.2
233.605	6.4
234.076	-5.3
234.546	1.2
235.017	1.1
235.487	1
235.958	-0.3
236.428	-0.5
236.899	3.5
237.369	4.3
237.84	-6.2
238.31	6.9
238.78	2.3
239.251	3.5
239.721	0.4
240.191	-1.3
240.662	0.5
241.132	0.7
241.602	1
242.072	3.3
242.542	10.6
243.013	-0.2
243.483	10.5
243.953	10.3
244.423	2.5
244.893	-2.5
245.363	8.5
245.833	7.5
246.303	1.4
246.773	10.3
247.243	0.6
247.712	-1.5
248.182	11.9
248.652	5.6
249.122	5.9
249.592	16.8
250.061	21.8
250.531	32.5
251.001	20.1
251.471	22.4
251.94	22.4
252.41	7.1
252.879	3.8
253.349	11.3
253.818	5.7
254.288	8
254.757	5.2
255.227	1.8
255.696	1.3
256.166	11.9
256.635	10.5
257.105	12.6
257.574	3.8
258.043	11.4
258.513	11
258.982	14.8
259.451	5.6
259.92	17
260.389	11.9
260.859	15.4
261.328	15.5
261.797	23.2
262.266	13.3
262.735	13.5
263.204	5.5
263.673	4.3
264.142	12.1
264.611	2.1
265.08	3
265.549	3.8
266.018	13.6
266.487	5.5
266.955	1.4
267.424	-2
267.893	11.6
268.362	-4.1
268.83	3.5
269.299	11.2
269.768	2.5
270.236	9.6
270.705	6.1
271.174	15.7
271.642	16.2
272.111	13.5
272.579	12.4
273.048	25.4
273.516	29.9
273.985	30.2
274.453	23.1
274.922	18.8
275.39	14.8
275.858	10.5
276.327	17.7
276.795	16.8
277.263	10.7
277.731	25.3
278.2	56.5
278.668	59.3
279.136	51.6
279.604	23
280.072	16.1
280.54	11.7
281.008	5.3
281.477	15.4
281.945	9.8
282.413	14.1
282.881	18.3
283.348	12.5
283.816	18.4
284.284	10
284.752	22.6
285.22	9.1
285.688	22
286.156	20.1
286.623	46.4
287.091	49.7
287.559	26.8
288.026	15.5
288.494	17.2
288.962	3.7
289.429	4.2
289.897	16.5
290.364	15.9
290.832	11.5
291.3	13.8
291.767	18.6
292.234	19.7
292.702	10.1
293.169	20.9
293.637	21
294.104	22.3
294.571	17.2
295.039	14.4
295.506	10.7
295.973	24
296.44	16.2
296.908	11.9
297.375	20.6
297.842	17.5
298.309	15
298.776	8.1
299.243	20.6
299.71	12.7
300.177	21.7
300.644	24.6
301.111	19.5
301.578	23.2
302.045	18.3
302.512	25.6
302.979	23.1
303.446	19.9
303.913	15.1
304.379	16
304.846	21.6
305.313	27.3
305.78	20.8
306.246	19.8
306.713	25.5
307.18	25.2
307.646	30.7
308.113	29.6
308.579	20
309.046	25
309.512	24.1
309.979	19.1
310.445	29.4
310.912	28.5
311.378	31.3
311.845	33.6
312.311	26
312.777	31.5
313.244	29.2
313.71	31.3
314.176	28
314.642	26.7
315.109	36.7
315.575	34
316.041	37.8
316.507	30.5
316.973	37.6
317.439	36.3
317.905	36.3
318.371	35.4
318.837	32.8
319.303	36.2
319.769	32.7
320.235	34.2
320.701	28.8
321.167	37
321.633	34.7
322.099	45.3
322.564	44.3
323.03	37.4
323.496	41.2
323.962	41.5
324.427	35.6
324.893	42.1
325.359	36.7
325.824	33.8
326.29	30.3
326.755	35.4
327.221	39.4
327.686	38
328.152	46.3
328.617	41
329.083	45.6
329.548	54.6
330.014	44.3
330.479	36.9
330.944	41.3
331.41	47.8
331.875	48.2
332.34	39.9
332.805	43.4
333.271	47.6
333.736	39.4
334.201	52.5
334.666	49.8
335.131	54.1
335.596	46.8
336.061	46.7
336.526	35.5
336.991	45.5
337.456	53.6
337.921	49.1
338.386	43.5
338.851	38.6
339.316	39.5
339.781	48.6
340.246	49
340.711	45.7
341.175	48.1
341.64	33.2
342.105	48.8
342.569	50.1
343.034	57.7
343.499	52.6
343.963	56.5
344.428	60.8
344.893	60.4
345.357	71.6
345.822	53
346.286	58.6
346.751	67.1
347.215	65.3
347.679	69.2
348.144	92
348.608	76.8
349.073	62.2
349.537	70.1
350.001	75.1
350.465	82.3
350.93	69
351.394	81.8
351.858	71.8
352.322	79.3
352.786	76.2
353.25	91.2
353.715	104.1
354.179	91.9
354.643	112.1
355.107	116.7
355.571	100.5
356.035	92.2
356.498	108.6
356.962	106.8
357.426	114
357.89	102
358.354	81.4
358.818	80.4
359.281	73.8
359.745	79.5
360.209	72.2
360.673	71.2
361.136	72.6
361.6	82.3
362.064	83.4
362.527	80
362.991	82.1
363.454	77.6
363.918	74.2
364.381	72.8
364.845	72.8
365.308	77.8
365.772	82.9
366.235	77.8
366.698	73.2
367.162	80.2
367.625	82.3
368.088	83.4
368.552	87.1
369.015	81.4
369.478	85.2
369.941	95.1
370.404	87.7
370.867	95.6
371.331	94.7
371.794	104.3
372.257	100.7
372.72	110.6
373.183	106.4
373.646	95.6
374.109	98.3
374.572	101.4
375.035	98.5
375.497	101.7
375.96	92.8
376.423	94.7
376.886	97.7
377.349	99.7
377.811	92.5
378.274	98.1
378.737	98
379.199	94.4
379.662	100.3
380.125	104.7
380.587	105.3
381.05	109.1
381.512	119
381.975	122.9
382.437	119.9
382.9	107.8
383.362	125.6
383.825	131.9
384.287	128.1
384.75	125.8
385.212	126.8
385.674	128.6
386.136	129.8
386.599	116.7
387.061	119.7
387.523	120.3
387.985	121.7
388.447	136.9
388.91	126.6
389.372	140.4
389.834	139.5
390.296	136.6
390.758	142
391.22	150.2
391.682	188.6
392.144	264.6
392.606	209.8
393.068	156.2
393.529	148.6
393.991	146.6
394.453	131.9
394.915	142.4
395.377	174.8
395.838	194.2
396.3	145.7
396.762	129.2
397.224	121.7
397.685	117.5
398.147	114.6
398.608	112.8
399.07	120.8
399.531	121.3
399.993	127.1
400.454	134.4
400.916	137.2
401.377	132
401.839	137.6
402.3	137.4
402.762	151.4
403.223	169.5
403.684	151.6
404.145	147.1
404.607	143.2
405.068	148.3
405.529	155.1
405.99	163.6
406.451	162.1
406.913	157.3
407.374	143.1
407.835	146
408.296	148.9
408.757	156.9
409.218	162.3
409.679	161.4
410.14	160.1
410.601	158.7
411.062	168.2
411.522	167.6
411.983	168.7
412.444	161.2
412.905	164.1
413.366	166.7
413.826	179.4
414.287	200.2
414.748	242.3
415.208	221.9
415.669	190
416.13	187.8
416.59	183.1
417.051	194
417.511	203.1
417.972	213.5
418.432	231.8
418.893	267.4
419.353	238.1
419.814	182.4
420.274	164.4
420.734	167.7
421.195	179
421.655	184.4
422.115	170.2
422.576	177.2
423.036	180.1
423.496	182.2
423.956	198.1
424.416	211.3
424.876	240.7
425.336	236.5
425.797	240
426.257	234.3
426.717	217.9
427.177	211.7
427.637	207.5
428.097	215.4
428.556	219.1
429.016	249.7
429.476	234.6
429.936	249.9
430.396	252.5
430.856	259.7
431.315	285
431.775	312.6
432.235	335.9
432.694	315.2
433.154	320.7
433.614	346.8
434.073	308.7
434.533	256
434.993	244.2
435.452	252.7
435.912	264.1
436.371	267.1
436.83	253
437.29	237
437.749	220.8
438.209	218.1
438.668	242.6
439.127	246.2
439.587	238.7
440.046	223.5
440.505	235.8
440.964	239.1
441.424	281.3
441.883	269.5
442.342	233.4
442.801	198.3
443.26	206.4
443.719	197.6
444.178	197.4
444.637	193.9
445.096	191.6
445.555	198.7
446.014	202.5
446.473	206.7
446.932	212.9
447.391	208.1
447.849	204.1
448.308	194
448.767	200.4
449.226	213.4
449.685	216.4
450.143	227.1
450.602	220.3
451.061	198.3
451.519	214
451.978	203.6
452.436	216.4
452.895	208.8
453.353	232.1
453.812	222.2
454.27	217.7
454.729	214.4
455.187	215.3
455.646	216.5
456.104	228.9
456.562	232.6
457.021	240.5
457.479	231.7
457.937	240.3
458.395	235.3
458.854	226
459.312	227.5
459.77	244.1
460.228	221.9
460.686	214.7
461.144	232.8
461.602	227.2
462.06	224.9
462.518	233.1
462.976	235
463.434	235.9
463.892	234.2
464.35	249.9
464.808	264.3
465.266	230.7
465.724	244
466.181	248.2
466.639	246.3
467.097	268
467.555	270.8
468.012	269.5
468.47	280.2
468.928	303.7
469.385	304.2
469.843	311.6
470.3	310.2
470.758	324.7
471.215	340.2
471.673	358.7
472.13	375.5
472.588	367.8
473.045	332.7
473.503	337.2
473.96	357.2
474.417	367.8
474.875	388.2
475.332	418.2
475.789	415
476.246	421.6
476.704	439.9
477.161	456.3
477.618	474.3
478.075	496.6
478.532	556.8
478.989	611
479.446	717.1
479.903	697.4
480.36	732.9
480.817	781.4
481.274	892.1
481.731	973.2
482.188	1059.5
482.645	1183.6
483.102	1275.4
483.558	1406
484.015	1465.8
484.472	1435.3
484.929	1391.7
485.385	1341.3
485.842	1311.4
486.299	1252
486.755	1170.6
487.212	992.8
487.668	831.3
488.125	772.2
488.582	715.9
489.038	689.9
489.494	640.1
489.951	634.1
490.407	610.9
490.864	586.2
491.32	581.7
491.776	579.4
492.233	583.7
492.689	549.8
493.145	536.4
493.602	535
494.058	557.8
494.514	554.7
494.97	571.7
495.426	580.7
495.882	565.7
496.338	553.7
496.794	555.7
497.251	555.9
497.707	574.3
498.163	576.8
498.618	578.5
499.074	586.4
499.53	612.8
499.986	608
500.442	592.1
500.898	570.5
501.354	566.9
501.809	576.2
502.265	577.7
502.721	598.7
503.177	607.6
503.632	592.6
504.088	606.1
504.543	631.1
504.999	634.4
505.455	591.9
505.91	569
506.366	574.4
506.821	560.1
507.277	561.5
507.732	566.3
508.187	562.9
508.643	565.9
509.098	567
509.553	584
510.009	607
510.464	601.9
510.919	626.3
511.375	627.5
511.83	631.9
512.285	646.2
512.74	685.1
513.195	704.8
513.65	692.6
514.105	689.7
514.56	702.6
515.015	713.1
515.47	722.7
515.925	715.5
516.38	710.6
516.835	726
517.29	700.6
517.745	699
518.2	692
518.655	677.5
519.109	671.9
519.564	666.3
520.019	658.9
520.474	651.8
520.928	659.7
521.383	648.3
521.838	638.4
522.292	638.7
522.747	628.5
523.201	642.3
523.656	616.1
524.11	622.6
524.565	626.2
525.019	617.3
525.474	626.4
525.928	629.8
526.382	626.7
526.837	618.7
527.291	622.4
527.745	630.8
528.2	627.2
528.654	612
529.108	615.6
529.562	620.1
530.016	614.8
530.47	623.9
530.925	617.3
531.379	628.5
531.833	630.5
532.287	626.5
532.741	633.4
533.195	634.3
533.649	640.6
534.103	633.6
534.556	627.8
535.01	632.8
535.464	636
535.918	644.3
536.372	642.9
536.826	639.7
537.279	627.8
537.733	629.7
538.187	635.2
538.64	641.6
539.094	636.7
539.548	650.4
540.001	640.8
540.455	645.2
540.908	644.2
541.362	651.5
541.815	657.3
542.269	664.7
542.722	677.4
543.175	682.8
543.629	684
544.082	695.5
544.536	703.2
544.989	695.6
545.442	701
545.895	690.5
546.349	687.5
546.802	703.2
547.255	702.7
547.708	708
548.161	718.1
548.614	718.5
549.067	735
549.52	724.3
549.973	718.6
550.426	724.3
550.879	704.3
551.332	708.1
551.785	712
552.238	707.4
552.691	724.5
553.144	729
553.596	744.1
554.049	763.4
554.502	794.9
554.955	800.4
555.407	804.4
555.86	786.4
556.313	793
556.765	778.9
557.218	773.6
557.67	770.9
558.123	768.6
558.576	765
559.028	774.8
559.48	779.2
559.933	767
560.385	731.4
560.838	711.6
561.29	686.6
561.742	683.8
562.195	677.5
562.647	674.5
563.099	681.3
563.551	679.2
564.004	683.8
564.456	674.4
564.908	668.3
565.36	651.5
565.812	644.4
566.264	625.6
566.716	625.5
567.168	623.7
567.62	632.9
568.072	606.7
568.524	595.3
568.976	601.9
569.428	589.2
569.88	583.2
570.332	588.8
570.784	590.6
571.235	593.3
571.687	591.1
572.139	604.9
572.59	618.3
573.042	617.4
573.494	609.7
573.945	603.8
574.397	596.7
574.849	597.7
575.3	591.6
575.752	588.6
576.203	588.3
576.655	589.2
577.106	584.8
577.557	569
578.009	578.2
578.46	578.4
578.912	568.5
579.363	570
579.814	566.9
580.265	569
580.717	571.7
581.168	582.2
581.619	590.7
582.07	588.8
582.521	578.5
582.972	574.7
583.423	581.5
583.875	588.3
584.326	603.1
584.777	648
585.227	712
585.678	785.9
586.129	865.2
586.58	943.1
587.031	1019.6
587.482	1162.6
587.933	1340.5
588.384	1153.1
588.834	847.7
589.285	685
589.736	663.3
590.186	659.3
590.637	652.7
591.088	640.5
591.538	630.5
591.989	624.5
592.439	627.5
592.89	611.9
593.34	605.1
593.791	602.1
594.241	605.6
594.692	598.8
595.142	602.5
595.593	592.6
596.043	589.3
596.493	594.9
596.943	600.5
597.394	606.2
597.844	612.9
598.294	620.5
598.744	644.8
599.195	657.7
599.645	701.1
600.095	727.2
600.545	764.3
600.995	813.9
601.445	859.4
601.895	919.8
602.345	965.1
602.795	944.1
603.245	908.4
603.695	854
604.145	805.3
604.594	774.1
605.044	733
605.494	675.2
605.944	636.3
606.393	630.2
606.843	619.6
607.293	618.9
607.743	613.7
608.192	632.8
608.642	639
609.091	650.7
609.541	647.7
609.99	645.3
610.44	641.1
610.889	601.7
611.339	582.3
611.788	576.3
612.238	591.2
612.687	603.4
613.136	612
613.586	625.3
614.035	609.4
614.484	632.2
614.933	638.5
615.383	627.2
615.832	611.4
616.281	610.4
616.73	575.3
617.179	555.4
617.628	543.5
618.077	525.3
618.526	516.7
618.975	519.6
619.424	516.9
619.873	509
620.322	523.8
620.771	502.8
621.22	509
621.669	485
622.118	487.3
622.567	478
623.015	476.6
623.464	469.9
623.913	467.4
624.361	463.8
624.81	456.6
625.259	461.9
625.707	457.5
626.156	478.1
626.604	471.1
627.053	465.8
627.501	475
627.95	475.1
628.398	484.7
628.847	470.6
629.295	470.7
629.744	476.3
630.192	466.4
630.64	472.2
631.089	468.2
631.537	475.6
631.985	474.6
632.433	486.3
632.881	502.8
633.33	536.2
633.778	522.9
634.226	459.7
634.674	467.7
635.122	477.2
635.57	485.4
636.018	513.2
636.466	475.4
636.914	462.5
637.362	469
637.81	475
638.258	481.3
638.705	476.5
639.153	501.7
639.601	504.6
640.049	520.9
640.497	548.3
640.944	576.9
641.392	531.8
641.84	498.1
642.287	487.7
642.735	472
643.182	473.6
643.63	472
644.078	472.6
644.525	481.1
644.973	475.7
645.42	502.5
645.867	515.3
646.315	517.1
646.762	548.9
647.21	571.9
647.657	584.2
648.104	614.5
648.551	629.2
648.999	684.9
649.446	746.4
649.893	809.7
650.34	946.7
650.787	1125.1
651.234	1394.2
651.682	1813.7
652.129	2468.4
652.576	3541.8
653.023	5264.6
653.47	7323.4
653.917	9222.1
654.363	10873.2
654.81	12247.1
655.257	11629.7
655.704	7509.5
656.151	4410.2
656.598	2847.4
657.044	2023.3
657.491	1545.6
657.938	1230.9
658.385	1019
658.831	891.5
659.278	796.5
659.724	702.2
660.171	644.6
660.618	592.9
661.064	563.9
661.511	549.8
661.957	528.1
662.404	519.8
662.85	517.5
663.296	502.6
663.743	453.6
664.189	444.6
664.635	436.5
665.082	423.1
665.528	437.6
665.974	424.5
666.42	407.2
666.867	413.4
667.313	399.3
667.759	389.9
668.205	390.1
668.651	394.3
669.097	396.7
669.543	418.5
669.989	385.7
670.435	371.4
670.881	364.4
671.327	364.6
671.773	383.6
672.219	401.8
672.665	447.6
673.11	473.9
673.556	512.8
674.002	544
674.448	541.9
674.893	448.2
675.339	391
675.785	354
676.23	344.8
676.676	322.9
677.122	313.5
677.567	303.9
678.013	296
678.458	288.7
678.904	283.8
679.349	285.7
679.794	282
680.24	288.9
680.685	282.4
681.131	276.8
681.576	277.1
682.021	281.5
682.466	281.2
682.912	279.8
683.357	282.7
683.802	302.1
684.247	328.7
684.692	363.9
685.137	398.9
685.583	433.7
686.028	460.4
686.473	420
686.918	359.4
687.363	334
687.807	315.2
688.252	293
688.697	287.1
689.142	276.9
689.587	265.8
690.032	260
690.477	273
690.921	281.2
691.366	298.4
691.811	316.1
692.255	349
692.7	366.2
693.145	404.1
693.589	547.2
694.034	879.1
694.478	1235.7
694.923	1411.6
695.367	1889.5
695.812	977.9
696.256	408.6
696.701	295.1
697.145	276.1
697.59	268.1
698.034	260.5
698.478	264.7
698.922	255.6
699.367	256.9
699.811	269.8
700.255	290.6
700.699	301.8
701.143	341
701.588	387.9
702.032	418.7
702.476	414.8
702.92	395.1
703.364	390.2
703.808	494
704.252	803.1
704.696	1148.7
705.14	1362.7
705.584	1773.6
706.027	871.2
706.471	419.5
706.915	315.8
707.359	288.1
707.803	258.5
708.246	246.5
708.69	249.5
709.134	249.7
709.577	246.7
710.021	257.8
710.465	247.4
710.908	235.5
711.352	236.2
711.795	246.7
712.239	278.5
712.682	305.2
713.126	329.4
713.569	370.5
714.012	290.4
714.456	257
714.899	236.2
715.342	219.6
715.786	210.1
716.229	198.3
716.672	208
717.115	200.8
717.558	201
718.002	203.2
718.445	214
718.888	230.8
719.331	229.7
719.774	249.6
720.217	253.3
720.66	226.5
721.103	217.1
721.546	201.6
721.989	200.9
722.432	182
722.874	194
723.317	184.1
723.76	186.9
724.203	208.9
724.645	247.7
725.088	352.7
725.531	466
725.974	529.3
726.416	448.9
726.859	246.6
727.301	193.7
727.744	187.7
728.187	183.8
728.629	186.4
729.071	199.5
729.514	201.5
729.956	221.1
730.399	226.9
730.841	227.3
731.283	219.1
731.726	216.5
732.168	201
732.61	207.5
733.053	233.8
733.495	247.8
733.937	277.3
734.379	311.4
734.821	348.2
735.263	437.2
735.705	641
736.148	1225.8
736.59	2050.4
737.032	2539.7
737.474	2065.8
737.916	650
738.357	344.1
738.799	257.3
739.241	237.3
739.683	224
740.125	230.1
740.567	235.6
741.008	255.6
741.45	254.2
741.892	257.4
742.334	276.9
742.775	291.5
743.217	276.7
743.658	222.1
744.1	208.8
744.542	211.8
744.983	251.9
745.425	282
745.866	276.1
746.307	235
746.749	227.5
747.19	255.1
747.632	357.5
748.073	666.2
748.514	1455.4
748.956	2289.3
749.397	2868.8
749.838	2380.5
750.279	2468.4
750.72	1233.2
751.162	436.4
751.603	253.9
752.044	204.8
752.485	175.6
752.926	168.4
753.367	161.2
753.808	154.5
754.249	153.6
754.69	147.2
755.131	139.3
755.572	143
756.013	141.7
756.453	144.2
756.894	149.4
757.335	152.5
757.776	160.3
758.216	162.3
758.657	154.9
759.098	155.9
759.538	180.5
759.979	209.3
760.42	291.5
760.86	533.5
761.301	1389.4
761.741	3488.4
762.182	5379.3
762.622	3794.4
763.063	1069.6
763.503	438.7
763.943	276.3
764.384	275.5
764.824	331.1
765.264	369.3
765.705	258.6
766.145	168.6
766.585	150.9
767.025	143.5
767.465	150
767.906	195.4
768.346	269.5
768.786	284.1
769.226	207.3
769.666	245.9
770.106	474.2
770.546	1205
770.986	2142.2
771.426	1984.6
771.866	642.2
772.306	265
772.745	170.6
773.185	138.7
773.625	138.2
774.065	139.5
774.505	154.2
774.944	241.6
775.384	528.7
775.824	1015.4
776.263	1009.8
776.703	423.4
777.142	178.3
777.582	125.6
778.021	105.7
778.461	110.6
778.9	112.3
779.34	103.4
779.779	92
780.219	87.6
780.658	83.3
781.097	84.7
781.537	92.5
781.976	84.9
782.415	78.9
782.855	74.7
783.294	77
783.733	82.8
784.172	81.6
784.611	85.2
785.05	89.4
785.489	82.9
785.928	101.3
786.367	97.8
786.806	90.2
787.245	108.3
787.684	108
788.123	118.4
788.562	105.1
789.001	102.4
789.44	97.3
789.879	88.5
790.317	89.5
790.756	99.4
791.195	108.9
791.634	112.9
792.072	166.5
792.511	283
792.95	772.9
793.388	1744.7
793.827	1618.3
794.265	551
794.704	226.5
795.142	148.2
795.581	119.1
796.019	106.7
796.458	101.8
796.896	95
797.334	104.6
797.773	123.9
798.211	168
798.649	331.4
799.087	805.5
799.526	1275.9
799.964	1622.4
800.402	1688.5
800.84	624.1
801.278	235.8
801.716	149.6
802.154	123.4
802.592	116.9
803.03	110.1
803.468	103.9
803.906	118.2
804.344	114.1
804.782	111.7
805.22	102.6
805.658	102
806.096	111.8
806.533	128.6
806.971	138
807.409	170.1
807.847	248.5
808.284	501.7
808.722	1463
809.16	2711.7
809.597	2499
810.035	4403
810.472	4965.6
810.91	1744.8
811.347	647
811.785	333.2
812.222	206.5
812.66	157.1
813.097	133.3
813.535	112.9
813.972	102.5
814.409	92.7
814.846	85.2
815.284	92
815.721	77.2
816.158	85
816.595	94.3
817.032	137.9
817.47	167.4
817.907	142.1
818.344	124.8
818.781	90.2
819.218	80
819.655	101.6
820.092	155.5
820.529	178
820.966	150.3
821.403	111.1
821.839	88
822.276	81.8
822.713	100.8
823.15	105.1
823.587	97.2
824.023	119.7
824.46	228.4
824.897	706
825.333	1136.7
825.77	487.7
826.206	186
826.643	112.5
827.08	84.6
827.516	61
827.953	55.1
828.389	65.8
828.825	55.7
829.262	50.9
829.698	44
830.135	55.1
830.571	50.6
831.007	53.7
831.443	52
831.88	42
832.316	50.6
832.752	45.7
833.188	54.5
833.624	51
834.06	52.1
834.497	47.2
834.933	56.5
835.369	62.7
835.805	49.8
836.241	61.5
836.677	62.1
837.112	69.5
837.548	81.3
837.984	109.5
838.42	158.3
838.856	381
839.292	1215.3
839.727	1935.8
840.163	882.4
840.599	722.8
841.034	1653
841.47	1817.3
841.906	649.6
842.341	266.4
842.777	189
843.212	253.6
843.648	264.8
844.083	125.9
844.519	77.4
844.954	61.9
845.39	47
845.825	49.2
846.261	45.2
846.696	45.3
847.131	45.1
847.566	53.3
848.002	43.1
848.437	43.1
848.872	55.4
849.307	47.5
849.742	68.7
850.177	144.3
850.613	436.8
851.048	725.4
851.483	316.4
851.918	117.7
852.353	66.4
852.788	46.6
853.223	43.6
853.657	45.8
854.092	34.4
854.527	28.3
854.962	28.3
855.397	35.3
855.832	42.1
856.266	38.6
856.701	32.8
857.136	29.6
857.57	33.2
858.005	39.2
858.44	47.5
858.874	35
859.309	46
859.743	33.2
860.178	38.8
860.612	26.9
861.047	44.4
861.481	58.9
861.915	60.2
862.35	42.6
862.784	21.4
863.218	32
863.653	25.4
864.087	34.1
864.521	50.9
864.955	56.4
865.39	123
865.824	141.4
866.258	90.6
866.692	134.6
867.126	151.6
867.56	85.6
867.994	41.2
868.428	29.5
868.862	34.4
869.296	49.1
869.73	49.4
870.164	43.4
870.598	38.7
871.031	31.3
871.465	26
871.899	30.4
872.333	23.6
872.766	20.5
873.2	20.6
873.634	17.8
874.067	18.9
874.501	22.8
874.935	26.7
875.368	25.3
875.802	25.4
876.235	18.8
876.669	22.7
877.102	20
877.535	17.6
877.969	14.5
878.402	17.5
878.836	13.5
879.269	21.2
879.702	18.4
880.135	18.6
880.569	17.7
881.002	21.1
881.435	21.5
881.868	17.2
882.301	18.9
882.734	14.6
883.167	11.9
883.601	16.4
884.034	22.9
884.467	7
884.899	18.7
885.332	8
885.765	12.5
886.198	8.3
886.631	15.7
887.064	12.5
887.497	14.6
887.929	22.8
888.362	6.7
888.795	15.2
889.228	10.5
889.66	22.1
890.093	18.3
890.526	13.8
890.958	13.7
891.391	13.2
891.823	14.8
892.256	8.7
892.688	10.4
893.121	13.2
893.553	17.1
893.985	18.4
894.418	20.4
894.85	6.1
895.282	7
895.715	10.7
896.147	14.5
896.579	16.8
897.011	3.1
897.444	14.4
897.876	12.2
898.308	14.6
898.74	16.6
899.172	13.1
899.604	13.1
900.036	13.7
900.468	9.6
900.9	6.7
901.332	13.9
901.764	7.9
902.196	12.2
902.628	8.8
903.06	9.8
903.491	29
903.923	16.9
904.355	15.6
904.787	23
905.218	18.3
905.65	16.2
906.082	9.6
906.513	11.5
906.945	16.2
907.376	4.6
907.808	20
908.239	17.6
908.671	14.3
909.102	18.3
909.534	13.9
909.965	39.2
910.397	74.6
910.828	255.8
911.259	401.3
911.691	186.6
912.122	86.6
912.553	42.9
912.984	30.9
913.415	18.4
913.847	19.6
914.278	13.9
914.709	9.5
915.14	15.5
915.571	13.7
916.002	11.9
916.433	15.2
916.864	14.5
917.295	11.1
917.726	11.8
918.157	11.7
918.587	25.2
919.018	13.7
919.449	12.8
919.88	19
920.311	24.7
920.741	31.6
921.172	128.1
921.603	129.8
922.033	60.2
922.464	37.8
922.895	16.1
923.325	23.5
923.756	12
924.186	12.4
924.617	17.7
925.047	35.4
925.478	39.9
925.908	35.5
926.338	15.8
926.769	11.8
927.199	24.5
927.629	10.7
928.06	14.1
928.49	14
928.92	12
929.35	18.1
929.78	11.2
930.21	8.8
930.641	2.2
931.071	8.4
931.501	-0
931.931	3.7
932.361	8.9
932.791	3.3
933.221	10.3
933.651	0.3
934.08	15
934.51	26.6
934.94	11
935.37	11.4
935.8	9.7
936.229	10.8
936.659	13.9
937.089	7
937.519	16.4
937.948	27
938.378	7.4
938.807	9
939.237	2.7
939.666	8.6
940.096	-7.4
940.525	-4
940.955	0.9
941.384	3.8
941.814	-9.5
942.243	-1.2
942.672	4.2
943.102	0.3
943.531	2.3
943.96	2.6
944.39	11
944.819	0.6
945.248	3.2
945.677	0.6
946.106	3.6
946.535	6.2
946.964	-0
947.393	5.3
947.822	-1
948.251	-1.9
948.68	4.2
949.109	4.2
949.538	2.7
949.967	-1.8
950.396	-1.7
950.825	-1.8
951.254	3.1
951.682	-3.4
952.111	5.1
952.54	8
952.969	-3.9
953.397	-4.2
953.826	-5
954.254	-9.1
954.683	-0.1
955.112	-6.5
955.54	4.1
955.969	0.3
956.397	4
956.826	-1.4
957.254	6.7
957.682	-1.2
958.111	3.5
958.539	-2.1
958.967	2.2
959.396	-3.2
959.824	4.6
960.252	2.2
960.68	-0.3
961.109	1.9
961.537	-7.8
961.965	-4.2
962.393	-2.4
962.821	0.5
963.249	3.3
963.677	6.3
964.105	-0.6
964.533	37.4
964.961	37.3
965.389	14.7
965.817	11.3
966.245	-0.1
966.672	0.1
967.1	-9.2
967.528	4.7
967.956	-2.3
968.383	2.4
968.811	-6.3
969.239	-4.1
969.666	-6
970.094	-3
970.522	6.8
970.949	-2.5
971.377	-2.3
971.804	-4.1
972.232	-1.6
972.659	-6.1
973.087	-2
973.514	-4.6
973.941	-7.9
974.369	4.6
974.796	4.8
975.223	0.3
975.651	0.4
976.078	2.6
976.505	-4.2
976.932	1.8
977.359	12.3
977.786	9.6
978.214	3.7
978.641	-3.5
979.068	-3.3
979.495	-2.7
979.922	2.8
980.349	-1.8
980.776	1
981.202	-1
981.629	-1.9
982.056	2.6
982.483	-4.5
982.91	3.8
983.337	-2.2
983.763	4.7
984.19	-0.4
984.617	2.4
985.043	-1.8
985.47	1
985.897	-2.1
986.323	-5.3
986.75	-0.3
987.176	-0.3
987.603	-7.6
988.029	1.6
988.456	-3.8
988.882	-1
989.308	-6.5
989.735	-4.5
990.161	-0.7
990.587	-0.3
991.014	-1.7
991.44	13
991.866	-4.9
992.292	3.1
992.719	5
993.145	0.3
993.571	-4.5
993.997	-6.1
994.423	-4.2
994.849	-8.5
995.275	-4.4
995.701	-1.8
996.127	-6.5
996.553	0.8
996.979	-3.3
997.405	-1.4
997.83	-7.7
998.256	-10.7
998.682	-11.2
999.108	-8.7
999.534	0.1
999.959	-4.1
1000.385	-4.1
1000.811	3.5
1001.236	-7.4
1001.662	-4.2
1002.087	-1.3
1002.513	-1.3
1002.938	1.6
1003.364	-3.3
1003.789	-1.5
1004.215	-2
1004.64	-0.2
1005.066	-1.7
1005.491	-0.8
1005.916	-3.1
1006.342	-4.3
1006.767	-4.9
1007.192	0.3
1007.617	-1.8
1008.042	-4
1008.468	-2.3
1008.893	-5.6
1009.318	-4.4
1009.743	1.5
1010.168	-1.7
1010.593	0.4
1011.018	-8
1011.443	0.3
1011.868	2.8
1012.293	-4.7
1012.718	-9.7
1013.143	-2.3
1013.567	0.2
1013.992	-7.6
1014.417	-15.7
1014.842	-3.2
1015.267	-9
1015.691	-9.3
1016.116	9.2
1016.541	0.9
1016.965	1.4
1017.39	2.3
1017.814	-2.4
1018.239	-1.6
1018.663	-8.4
1019.088	-8.4
1019.512	-5
1019.937	0.5
1020.361	-7.6
1020.785	-13.9
1021.21	-1.1
1021.634	-8.3
1022.058	4.4
1022.483	1.2
1022.907	-2.1
1023.331	-6
1023.755	5.8
1024.179	-2.4
1024.604	-4.6
1025.028	-11.1
1025.452	-5.7
1025.876	-1.4
1026.3	-1.1
1026.724	-9.9
1027.148	-3.9
1027.572	-0.5
1027.996	-0.8
1028.42	-0
1028.843	-3.5
1029.267	-4.5
1029.691	-4.3
1030.115	-7.5
1030.539	-10.4
1030.962	-7.6
1031.386	-5.7
1031.81	-3.1
1032.233	-1.1
1032.657	-0.3
1033.08	-2.3
1033.504	1.2
1033.927	-7
1034.351	-1.5
1034.774	-5.2
1035.198	4.9
1035.621	-7.9
1036.045	-8.7
1036.468	-0.3
1036.891	-5.5
1037.315	-3.5
1037.738	-12.4
1038.161	-4.7
1038.584	-1.1
1039.008	2.2
1039.431	-3.9
1039.854	8.4
1040.277	-9.5
1040.7	-14.7
1041.123	-0.6
1041.546	-10.2
1041.969	-3.3
1042.392	-11.6
1042.815	-0.5
1043.238	1.6
1043.661	4.8
1044.084	-4.9
1044.507	1.4
1044.93	-5.4
1045.352	-4.5
1045.775	-2.2
1046.198	-1.1
1046.621	-3.8
1047.043	-1
1047.466	10.8
1047.889	0.2
1048.311	-5.1
1048.734	-5.7
1049.156	-0.6
1049.579	-3.1
1050.001	-6.9
1050.424	-1.9
1050.846	-2.9
1051.269	-4.5
1051.691	-6
1052.113	-1.8
1052.536	-0.5
1052.958	-2.8
1053.38	-7.3
1053.802	-10.3
1054.225	1.6
1054.647	-6
1055.069	-5.2
1055.491	4.7
1055.913	-4
1056.335	4.3
1056.757	-1.2
1057.179	-7
1057.601	-6
1058.023	-6.1
1058.445	-4.4
1058.867	0.8
1059.289	-0.6
1059.711	-4.5
1060.133	-5.7
1060.555	-7.6
1060.976	-7.1
1061.398	-6.4
1061.82	-5.2
1062.241	-3.7
1062.663	-1.7
1063.085	-1
1063.506	-1.4
1063.928	-6.9
1064.35	-2.7
1064.771	-8.6
1065.193	-3.8
1065.614	-4.9
1066.035	-3.5
1066.457	-1
1066.878	-2.9
1067.3	-5.2
1067.721	-6.1
1068.142	-4.6
1068.564	1.4
1068.985	-2.9
1069.406	-11.3
1069.827	-13.1
1070.248	5.1
1070.67	-7.3
1071.091	-4.3
1071.512	-5.8
1071.933	-7.3
1072.354	-4.5
1072.775	-3.1
1073.196	-10.1
1073.617	-3.1
1074.038	-3.9
1074.459	-5.7
1074.88	1.3
1075.3	-0.8
1075.721	-5.4
1076.142	-2.9
1076.563	-3
1076.983	-11.8
1077.404	-8.3
1077.825	-5.9
1078.246	-7.5
1078.666	-9.6
1079.087	-6.4
1079.507	-6.9
1079.928	3.1
1080.348	-4.7
1080.769	-9.6
1081.189	-2
1081.61	-3.5
1082.03	-8.8
1082.451	0.2
1082.871	-6.4
1083.291	-10.7
1083.711	-5.7
1084.132	-2.1
1084.552	-4.1
1084.972	-3.7
1085.392	-8.5
1085.813	-13.5
1086.233	-9.4
1086.653	-1.3
1087.073	-3.4
1087.493	-11.8
1087.913	-5.1
1088.333	-9
1088.753	-3.7
1089.173	5.6
1089.593	-6.8
1090.013	5.4
1090.433	-4.6
1090.852	-6.7
1091.272	2.4
1091.692	-2.8
1092.112	-5.6
1092.531	-5.4
1092.951	-10.8
1093.371	-4.5
1093.79	2.1
1094.21	-8.3
1094.63	-5.2
1095.049	-9.2
1095.469	0.9
1095.888	1.5
1096.308	0.3
1096.727	5.5
1097.146	-11.1
1097.566	-1.6
1097.985	-11.2
1098.405	0.8
1098.824	-3.5
1099.243	-2.4
1099.662	-2.7
1100.082	1
1100.501	-0.4
1100.92	-14
1101.339	-5
1101.758	-7.5
