Data from 20171114-ORNL-Ar_H_NY_Subt18_08-08-20-843.txt Node
Date: Tue Nov 14 08:08:20 EST 2017
User: Ender
Spectrometer: HR+D1039
Trigger mode: 0
Integration Time (sec): 2.730000E-2
Scans to average: 10
Electric dark correction enabled: true
Nonlinearity correction enabled: false
Boxcar width: 0
XAxis mode: Wavelengths
Number of Pixels in Spectrum: 2048
>>>>>Begin Spectral Data<<<<<
187.836	-0.26
188.309	-0.26
188.782	-0.26
189.255	0.24
189.728	-1.16
190.201	0.54
190.674	-0.16
191.147	-1.86
191.619	-8.26
192.092	-2.76
192.565	5.84
193.038	1.14
193.511	3.54
193.984	4.04
194.456	-4.56
194.929	4.94
195.402	-3.16
195.874	1.84
196.347	-2.86
196.82	-1.96
197.292	4.54
197.765	-3.66
198.237	-9.06
198.71	4.74
199.182	-3.66
199.655	4.54
200.127	2.24
200.6	-1.66
201.072	-4.66
201.544	-8.06
202.017	-6.66
202.489	8.14
202.961	-2.76
203.433	-2.86
203.906	-7.56
204.378	-6.26
204.85	-5.86
205.322	-9.86
205.794	0.04
206.266	-0.36
206.739	-8.66
207.211	-7.06
207.683	-7.46
208.155	-7.06
208.627	-6.76
209.099	-2.06
209.57	-4.66
210.042	-2.16
210.514	-6.86
210.986	-1.26
211.458	-4.36
211.93	1.24
212.402	5.04
212.873	-2.26
213.345	-8.76
213.817	-10.56
214.288	-0.56
214.76	-9.46
215.232	-7.76
215.703	-1.86
216.175	3.24
216.646	-6.66
217.118	-12.26
217.589	-0.96
218.061	4.54
218.532	-9.36
219.004	-6.36
219.475	-2.76
219.946	-4.46
220.418	-8.26
220.889	3.54
221.36	3.44
221.832	-1.46
222.303	-6.86
222.774	4.34
223.245	-11.96
223.717	-5.66
224.188	-6.66
224.659	-6.66
225.13	-9.16
225.601	1.54
226.072	4.94
226.543	-7.06
227.014	-1.66
227.485	-3.36
227.956	-3.96
228.427	-4.86
228.898	2.64
229.369	2.84
229.839	-4.06
230.31	-7.86
230.781	0.94
231.252	-2.86
231.722	-0.56
232.193	-5.26
232.664	-4.96
233.135	3.34
233.605	0.24
234.076	-0.86
234.546	0.84
235.017	4.04
235.487	0.84
235.958	0.34
236.428	-1.06
236.899	6.04
237.369	3.24
237.84	-2.76
238.31	10.04
238.78	-2.16
239.251	-2.76
239.721	2.64
240.191	1.34
240.662	2.34
241.132	-2.56
241.602	1.44
242.072	0.14
242.542	10.74
243.013	-4.56
243.483	3.74
243.953	1.64
244.423	-0.56
244.893	-4.46
245.363	3.04
245.833	-1.06
246.303	-2.86
246.773	5.44
247.243	-3.16
247.712	2.74
248.182	9.44
248.652	5.74
249.122	3.04
249.592	8.64
250.061	18.24
250.531	30.64
251.001	15.04
251.471	19.14
251.94	20.54
252.41	14.44
252.879	-0.66
253.349	11.54
253.818	6.24
254.288	10.54
254.757	4.94
255.227	2.14
255.696	2.14
256.166	3.24
256.635	2.94
257.105	8.14
257.574	6.14
258.043	8.84
258.513	12.54
258.982	14.74
259.451	6.84
259.92	11.74
260.389	8.24
260.859	16.34
261.328	3.34
261.797	11.94
262.266	5.94
262.735	13.24
263.204	3.74
263.673	-3.86
264.142	4.94
264.611	1.94
265.08	4.44
265.549	-3.06
266.018	3.74
266.487	-7.26
266.955	-2.96
267.424	-1.86
267.893	11.24
268.362	2.24
268.83	3.84
269.299	11.74
269.768	6.44
270.236	4.04
270.705	-0.56
271.174	9.14
271.642	10.14
272.111	8.94
272.579	17.34
273.048	19.64
273.516	29.14
273.985	28.74
274.453	28.04
274.922	15.64
275.39	11.34
275.858	0.44
276.327	11.34
276.795	18.74
277.263	9.24
277.731	26.34
278.2	45.34
278.668	50.24
279.136	39.24
279.604	18.54
280.072	13.94
280.54	12.74
281.008	15.94
281.477	16.44
281.945	10.14
282.413	12.54
282.881	10.84
283.348	11.04
283.816	20.34
284.284	11.84
284.752	17.84
285.22	5.64
285.688	14.24
286.156	21.64
286.623	45.04
287.091	50.74
287.559	33.94
288.026	17.24
288.494	10.44
288.962	7.24
289.429	3.54
289.897	12.64
290.364	11.64
290.832	11.94
291.3	13.74
291.767	20.54
292.234	17.44
292.702	12.54
293.169	15.74
293.637	20.54
294.104	19.64
294.571	11.94
295.039	14.04
295.506	15.14
295.973	15.44
296.44	14.34
296.908	14.34
297.375	16.64
297.842	16.94
298.309	18.74
298.776	12.74
299.243	17.14
299.71	17.44
300.177	17.94
300.644	24.94
301.111	15.14
301.578	19.74
302.045	13.24
302.512	18.24
302.979	24.74
303.446	23.44
303.913	16.84
304.379	15.34
304.846	23.84
305.313	20.04
305.78	25.94
306.246	26.14
306.713	26.04
307.18	24.74
307.646	29.04
308.113	25.44
308.579	22.34
309.046	25.74
309.512	22.74
309.979	14.54
310.445	27.04
310.912	27.94
311.378	27.94
311.845	30.74
312.311	23.34
312.777	31.14
313.244	30.34
313.71	37.24
314.176	30.84
314.642	33.04
315.109	27.54
315.575	34.14
316.041	38.34
316.507	30.84
316.973	38.64
317.439	30.84
317.905	29.34
318.371	32.24
318.837	27.44
319.303	31.04
319.769	32.64
320.235	30.04
320.701	29.34
321.167	31.84
321.633	33.44
322.099	38.04
322.564	45.04
323.03	39.44
323.496	37.64
323.962	37.34
324.427	33.44
324.893	36.54
325.359	39.04
325.824	34.14
326.29	33.04
326.755	41.54
327.221	38.14
327.686	38.14
328.152	42.94
328.617	37.34
329.083	43.94
329.548	44.64
330.014	41.24
330.479	34.54
330.944	45.74
331.41	46.54
331.875	43.34
332.34	46.04
332.805	39.04
333.271	45.64
333.736	45.14
334.201	51.54
334.666	50.44
335.131	49.74
335.596	45.64
336.061	53.64
336.526	34.04
336.991	46.14
337.456	52.84
337.921	48.44
338.386	39.14
338.851	46.74
339.316	46.74
339.781	46.64
340.246	47.54
340.711	50.24
341.175	46.54
341.64	44.44
342.105	52.24
342.569	56.04
343.034	52.94
343.499	54.54
343.963	44.84
344.428	69.64
344.893	58.44
345.357	61.24
345.822	60.54
346.286	62.94
346.751	69.44
347.215	66.64
347.679	69.24
348.144	99.04
348.608	77.44
349.073	65.64
349.537	67.04
350.001	75.24
350.465	95.54
350.93	78.94
351.394	76.84
351.858	70.14
352.322	84.94
352.786	87.44
353.25	100.24
353.715	106.74
354.179	101.14
354.643	124.54
355.107	127.74
355.571	107.04
356.035	102.44
356.498	122.64
356.962	121.34
357.426	127.64
357.89	115.74
358.354	87.04
358.818	83.24
359.281	75.14
359.745	73.24
360.209	76.04
360.673	72.14
361.136	80.84
361.6	82.24
362.064	81.64
362.527	79.44
362.991	90.04
363.454	77.44
363.918	75.04
364.381	70.34
364.845	79.64
365.308	84.84
365.772	89.04
366.235	86.84
366.698	81.34
367.162	87.64
367.625	86.84
368.088	82.84
368.552	88.24
369.015	81.14
369.478	95.84
369.941	104.34
370.404	98.04
370.867	105.24
371.331	109.54
371.794	120.54
372.257	121.74
372.72	120.34
373.183	101.74
373.646	105.94
374.109	106.04
374.572	110.44
375.035	108.64
375.497	117.34
375.96	102.44
376.423	101.84
376.886	109.54
377.349	107.74
377.811	103.64
378.274	104.84
378.737	105.84
379.199	111.64
379.662	112.24
380.125	120.34
380.587	125.34
381.05	127.04
381.512	136.44
381.975	136.94
382.437	132.54
382.9	126.34
383.362	134.74
383.825	152.64
384.287	156.84
384.75	139.54
385.212	145.14
385.674	143.74
386.136	141.24
386.599	122.04
387.061	132.44
387.523	130.54
387.985	131.34
388.447	148.74
388.91	151.04
389.372	168.14
389.834	163.94
390.296	148.34
390.758	155.64
391.22	179.94
391.682	221.04
392.144	321.84
392.606	238.24
393.068	175.34
393.529	170.34
393.991	152.14
394.453	157.84
394.915	154.84
395.377	197.14
395.838	219.44
396.3	162.04
396.762	142.34
397.224	140.64
397.685	121.84
398.147	139.54
398.608	132.64
399.07	125.24
399.531	131.04
399.993	142.54
400.454	146.24
400.916	141.74
401.377	145.34
401.839	154.24
402.3	153.44
402.762	170.14
403.223	180.44
403.684	169.94
404.145	166.04
404.607	161.94
405.068	165.14
405.529	172.24
405.99	190.54
406.451	177.04
406.913	177.34
407.374	168.54
407.835	167.44
408.296	173.14
408.757	185.84
409.218	188.64
409.679	185.54
410.14	182.24
410.601	178.14
411.062	184.64
411.522	193.84
411.983	191.24
412.444	178.14
412.905	171.74
413.366	182.84
413.826	193.74
414.287	210.74
414.748	255.34
415.208	244.14
415.669	207.44
416.13	203.34
416.59	204.04
417.051	212.94
417.511	223.44
417.972	238.34
418.432	234.94
418.893	283.54
419.353	253.74
419.814	196.64
420.274	185.44
420.734	191.04
421.195	208.94
421.655	207.34
422.115	197.14
422.576	196.94
423.036	201.44
423.496	208.04
423.956	218.84
424.416	233.24
424.876	268.04
425.336	263.34
425.797	268.34
426.257	259.24
426.717	244.84
427.177	238.54
427.637	225.04
428.097	234.34
428.556	238.14
429.016	278.74
429.476	272.44
429.936	281.04
430.396	280.34
430.856	293.24
431.315	328.74
431.775	355.74
432.235	377.14
432.694	358.14
433.154	365.64
433.614	407.64
434.073	347.84
434.533	283.64
434.993	276.34
435.452	282.94
435.912	301.34
436.371	288.04
436.83	289.54
437.29	267.34
437.749	248.04
438.209	242.84
438.668	287.44
439.127	292.64
439.587	278.54
440.046	249.24
440.505	261.64
440.964	277.74
441.424	322.94
441.883	314.64
442.342	261.24
442.801	231.24
443.26	221.74
443.719	226.44
444.178	222.64
444.637	217.94
445.096	221.14
445.555	223.94
446.014	214.04
446.473	230.04
446.932	229.84
447.391	225.84
447.849	226.44
448.308	210.84
448.767	215.14
449.226	238.04
449.685	234.54
450.143	246.64
450.602	232.54
451.061	228.54
451.519	229.34
451.978	238.44
452.436	234.24
452.895	237.74
453.353	257.04
453.812	234.84
454.27	237.24
454.729	234.84
455.187	239.24
455.646	241.24
456.104	246.04
456.562	269.74
457.021	274.04
457.479	259.84
457.937	274.64
458.395	264.64
458.854	246.44
459.312	253.44
459.77	273.84
460.228	256.54
460.686	242.74
461.144	246.34
461.602	247.74
462.06	244.74
462.518	257.34
462.976	251.54
463.434	259.84
463.892	262.54
464.35	271.34
464.808	283.64
465.266	256.94
465.724	267.84
466.181	270.34
466.639	264.34
467.097	276.84
467.555	297.64
468.012	302.54
468.47	308.14
468.928	329.94
469.385	346.74
469.843	342.64
470.3	357.14
470.758	364.44
471.215	385.24
471.673	407.54
472.13	403.44
472.588	423.34
473.045	377.54
473.503	378.54
473.96	389.64
474.417	406.94
474.875	433.04
475.332	457.94
475.789	455.44
476.246	463.44
476.704	477.04
477.161	504.34
477.618	516.64
478.075	562.94
478.532	627.74
478.989	690.24
479.446	817.54
479.903	773.54
480.36	804.84
480.817	871.04
481.274	963.04
481.731	1082.34
482.188	1170.44
482.645	1300.74
483.102	1419.74
483.558	1556.54
484.015	1611.44
484.472	1594.54
484.929	1529.64
485.385	1475.74
485.842	1436.04
486.299	1362.24
486.755	1288.24
487.212	1093.14
487.668	929.34
488.125	846.14
488.582	774.74
489.038	744.54
489.494	709.94
489.951	679.44
490.407	654.44
490.864	640.84
491.32	625.14
491.776	633.24
492.233	639.94
492.689	605.94
493.145	610.84
493.602	590.24
494.058	606.64
494.514	609.34
494.97	627.14
495.426	638.14
495.882	614.34
496.338	611.44
496.794	610.94
497.251	611.04
497.707	624.74
498.163	630.34
498.618	626.24
499.074	637.14
499.53	671.04
499.986	664.54
500.442	645.44
500.898	621.64
501.354	618.74
501.809	632.24
502.265	636.44
502.721	658.84
503.177	664.94
503.632	657.54
504.088	666.64
504.543	700.84
504.999	693.74
505.455	649.44
505.91	620.14
506.366	620.04
506.821	617.14
507.277	618.34
507.732	616.84
508.187	619.74
508.643	618.44
509.098	624.84
509.553	645.94
510.009	650.44
510.464	656.84
510.919	670.04
511.375	675.74
511.83	695.74
512.285	705.44
512.74	751.24
513.195	760.54
513.65	757.64
514.105	747.14
514.56	758.74
515.015	781.14
515.47	802.14
515.925	771.34
516.38	771.54
516.835	778.44
517.29	768.24
517.745	762.74
518.2	746.94
518.655	725.84
519.109	730.04
519.564	722.84
520.019	722.44
520.474	715.34
520.928	722.54
521.383	701.64
521.838	696.84
522.292	703.54
522.747	705.64
523.201	697.74
523.656	687.24
524.11	683.64
524.565	692.44
525.019	682.94
525.474	694.94
525.928	687.04
526.382	684.94
526.837	682.34
527.291	693.84
527.745	690.64
528.2	676.24
528.654	673.94
529.108	669.84
529.562	675.54
530.016	673.54
530.47	679.94
530.925	685.04
531.379	683.24
531.833	692.04
532.287	685.44
532.741	691.54
533.195	690.64
533.649	694.84
534.103	698.74
534.556	688.44
535.01	688.74
535.464	689.24
535.918	712.14
536.372	702.64
536.826	699.34
537.279	686.54
537.733	701.14
538.187	704.04
538.64	695.74
539.094	704.84
539.548	713.34
540.001	709.74
540.455	704.34
540.908	712.44
541.362	723.54
541.815	736.94
542.269	737.54
542.722	747.14
543.175	755.34
543.629	748.04
544.082	769.34
544.536	764.04
544.989	769.04
545.442	774.74
545.895	776.44
546.349	768.14
546.802	771.74
547.255	777.04
547.708	790.44
548.161	797.24
548.614	799.44
549.067	806.24
549.52	802.24
549.973	785.44
550.426	797.54
550.879	783.74
551.332	785.74
551.785	793.94
552.238	782.54
552.691	806.84
553.144	810.54
553.596	829.54
554.049	838.44
554.502	878.14
554.955	886.94
555.407	884.24
555.86	878.74
556.313	871.14
556.765	854.14
557.218	866.34
557.67	871.54
558.123	863.94
558.576	859.54
559.028	852.34
559.48	857.34
559.933	851.44
560.385	827.04
560.838	787.94
561.29	769.44
561.742	765.94
562.195	743.64
562.647	755.04
563.099	758.24
563.551	764.14
564.004	770.84
564.456	756.34
564.908	750.94
565.36	733.94
565.812	725.14
566.264	720.24
566.716	712.64
567.168	701.54
567.62	715.94
568.072	697.44
568.524	694.84
568.976	680.74
569.428	664.24
569.88	659.54
570.332	674.54
570.784	676.54
571.235	680.44
571.687	693.04
572.139	694.04
572.59	703.24
573.042	689.04
573.494	691.14
573.945	697.94
574.397	670.54
574.849	670.94
575.3	684.44
575.752	673.44
576.203	663.04
576.655	675.44
577.106	657.94
577.557	649.84
578.009	660.24
578.46	657.14
578.912	651.34
579.363	654.54
579.814	653.64
580.265	650.94
580.717	657.74
581.168	658.44
581.619	674.04
582.07	669.54
582.521	664.24
582.972	664.34
583.423	669.74
583.875	667.04
584.326	694.54
584.777	759.24
585.227	839.34
585.678	933.84
586.129	1034.64
586.58	1128.84
587.031	1214.14
587.482	1370.54
587.933	1583.04
588.384	1353.94
588.834	1001.24
589.285	800.64
589.736	782.84
590.186	770.04
590.637	765.14
591.088	739.94
591.538	734.34
591.989	733.04
592.439	726.64
592.89	713.44
593.34	705.94
593.791	704.54
594.241	696.44
594.692	702.44
595.142	699.54
595.593	689.14
596.043	693.24
596.493	711.64
596.943	704.14
597.394	710.54
597.844	690.74
598.294	728.14
598.744	745.54
599.195	764.64
599.645	810.74
600.095	847.74
600.545	907.84
600.995	956.84
601.445	1005.84
601.895	1070.84
602.345	1123.94
602.795	1099.64
603.245	1042.54
603.695	987.74
604.145	938.54
604.594	891.74
605.044	838.04
605.494	776.34
605.944	743.14
606.393	733.54
606.843	718.34
607.293	722.14
607.743	724.94
608.192	744.24
608.642	755.84
609.091	764.54
609.541	768.44
609.99	769.64
610.44	766.24
610.889	712.14
611.339	692.64
611.788	685.34
612.238	706.14
612.687	720.84
613.136	712.34
613.586	744.44
614.035	738.94
614.484	754.74
614.933	759.74
615.383	751.94
615.832	734.24
616.281	728.24
616.73	698.24
617.179	660.34
617.628	640.54
618.077	635.14
618.526	615.94
618.975	616.44
619.424	613.54
619.873	608.24
620.322	607.64
620.771	598.54
621.22	595.04
621.669	589.54
622.118	583.44
622.567	582.24
623.015	562.04
623.464	560.24
623.913	551.74
624.361	550.44
624.81	544.34
625.259	544.14
625.707	552.04
626.156	553.84
626.604	558.04
627.053	552.14
627.501	555.44
627.95	566.74
628.398	570.24
628.847	569.74
629.295	572.34
629.744	568.84
630.192	568.14
630.64	572.14
631.089	567.34
631.537	576.94
631.985	595.34
632.433	616.84
632.881	609.84
633.33	680.84
633.778	651.54
634.226	570.84
634.674	573.64
635.122	580.24
635.57	599.04
636.018	635.04
636.466	573.64
636.914	554.14
637.362	570.54
637.81	573.64
638.258	582.74
638.705	576.84
639.153	608.94
639.601	609.14
640.049	637.54
640.497	663.74
640.944	680.04
641.392	623.94
641.84	615.54
642.287	587.94
642.735	570.84
643.182	574.24
643.63	564.74
644.078	584.84
644.525	591.04
644.973	602.04
645.42	606.74
645.867	624.54
646.315	635.54
646.762	661.04
647.21	701.24
647.657	712.04
648.104	752.44
648.551	784.54
648.999	850.44
649.446	929.24
649.893	1019.14
650.34	1169.64
650.787	1414.44
651.234	1767.84
651.682	2322.34
652.129	3216.14
652.576	4646.94
653.023	6857.44
653.47	9389.04
653.917	11610.54
654.363	13292.74
654.81	14622.54
655.257	13946.24
655.704	9102.54
656.151	5338.54
656.598	3465.54
657.044	2449.34
657.491	1879.34
657.938	1511.74
658.385	1248.64
658.831	1080.44
659.278	963.44
659.724	855.64
660.171	786.74
660.618	722.64
661.064	694.34
661.511	671.04
661.957	659.54
662.404	653.54
662.85	638.34
663.296	623.04
663.743	563.54
664.189	532.94
664.635	537.84
665.082	523.84
665.528	518.64
665.974	512.84
666.42	513.44
666.867	509.44
667.313	504.04
667.759	486.74
668.205	486.64
668.651	492.74
669.097	492.94
669.543	511.34
669.989	478.54
670.435	446.44
670.881	434.34
671.327	450.64
671.773	467.04
672.219	488.34
672.665	534.24
673.11	581.54
673.556	629.94
674.002	655.44
674.448	648.84
674.893	546.34
675.339	467.44
675.785	434.34
676.23	410.74
676.676	386.04
677.122	383.94
677.567	370.74
678.013	362.64
678.458	353.24
678.904	353.24
679.349	345.04
679.794	352.34
680.24	344.64
680.685	346.84
681.131	342.44
681.576	348.54
682.021	347.94
682.466	344.94
682.912	344.84
683.357	350.84
683.802	380.54
684.247	408.24
684.692	449.74
685.137	486.04
685.583	535.94
686.028	555.54
686.473	507.84
686.918	438.24
687.363	426.44
687.807	393.14
688.252	365.74
688.697	353.84
689.142	332.74
689.587	331.94
690.032	330.44
690.477	346.34
690.921	350.74
691.366	384.14
691.811	403.34
692.255	434.34
692.7	455.94
693.145	503.24
693.589	709.64
694.034	1133.14
694.478	1526.44
694.923	1693.44
695.367	2199.44
695.812	1169.64
696.256	497.14
696.701	369.94
697.145	335.14
697.59	330.14
698.034	322.54
698.478	329.24
698.922	326.04
699.367	331.94
699.811	336.64
700.255	353.84
700.699	387.54
701.143	437.74
701.588	476.04
702.032	506.04
702.476	502.44
702.92	481.34
703.364	487.44
703.808	636.24
704.252	1047.64
704.696	1465.14
705.14	1644.94
705.584	2077.24
706.027	1052.04
706.471	520.54
706.915	390.04
707.359	353.44
707.803	319.74
708.246	315.54
708.69	310.74
709.134	317.14
709.577	312.14
710.021	314.14
710.465	303.54
710.908	301.54
711.352	293.94
711.795	313.24
712.239	356.84
712.682	389.04
713.126	413.14
713.569	464.64
714.012	377.44
714.456	322.54
714.899	300.34
715.342	283.84
715.786	263.94
716.229	250.34
716.672	248.04
717.115	249.24
717.558	248.04
718.002	247.64
718.445	269.34
718.888	282.84
719.331	294.74
719.774	313.34
720.217	297.94
720.66	284.04
721.103	267.84
721.546	254.84
721.989	250.24
722.432	227.04
722.874	228.44
723.317	228.84
723.76	232.74
724.203	252.94
724.645	315.64
725.088	457.24
725.531	577.44
725.974	633.34
726.416	531.74
726.859	301.34
727.301	243.04
727.744	232.64
728.187	235.14
728.629	235.14
729.071	244.44
729.514	261.74
729.956	277.24
730.399	279.74
730.841	281.84
731.283	272.14
731.726	267.84
732.168	261.34
732.61	261.84
733.053	290.74
733.495	315.34
733.937	349.84
734.379	400.84
734.821	442.54
735.263	539.24
735.705	860.94
736.148	1611.14
736.59	2572.24
737.032	2951.04
737.474	2417.24
737.916	801.54
738.357	426.84
738.799	318.34
739.241	299.44
739.683	282.24
740.125	284.24
740.567	292.84
741.008	313.84
741.45	315.34
741.892	313.94
742.334	336.54
742.775	355.04
743.217	332.04
743.658	272.04
744.1	248.24
744.542	255.64
744.983	304.34
745.425	331.24
745.866	329.24
746.307	286.64
746.749	280.54
747.19	335.14
747.632	462.84
748.073	916.74
748.514	1894.94
748.956	2830.54
749.397	3539.94
749.838	2954.34
750.279	2880.94
750.72	1470.94
751.162	546.54
751.603	315.64
752.044	252.64
752.485	213.74
752.926	212.24
753.367	201.74
753.808	191.34
754.249	193.64
754.69	182.64
755.131	184.04
755.572	182.74
756.013	177.54
756.453	177.54
756.894	188.64
757.335	188.44
757.776	196.84
758.216	192.14
758.657	197.24
759.098	204.44
759.538	227.04
759.979	267.94
760.42	369.14
760.86	735.04
761.301	1870.14
761.741	4464.54
762.182	6201.44
762.622	4368.24
763.063	1292.54
763.503	536.74
763.943	346.84
764.384	347.64
764.824	430.14
765.264	471.84
765.705	325.04
766.145	212.24
766.585	187.94
767.025	185.44
767.465	191.14
767.906	260.64
768.346	343.44
768.786	362.84
769.226	274.04
769.666	327.04
770.106	645.84
770.546	1594.24
770.986	2597.44
771.426	2287.74
771.866	777.54
772.306	325.94
772.745	208.54
773.185	166.14
773.625	173.44
774.065	169.64
774.505	203.44
774.944	338.34
775.384	757.74
775.824	1326.44
776.263	1268.24
776.703	541.54
777.142	223.34
777.582	164.64
778.021	141.14
778.461	146.44
778.9	142.34
779.34	139.04
779.779	122.54
780.219	109.44
780.658	113.94
781.097	107.44
781.537	111.64
781.976	106.94
782.415	108.84
782.855	109.04
783.294	105.04
783.733	110.54
784.172	110.44
784.611	96.44
785.05	102.64
785.489	111.84
785.928	116.24
786.367	122.74
786.806	116.14
787.245	132.24
787.684	134.64
788.123	145.34
788.562	131.74
789.001	120.64
789.44	127.64
789.879	125.04
790.317	118.14
790.756	127.04
791.195	127.14
791.634	149.64
792.072	203.04
792.511	386.24
792.95	1040.34
793.388	2112.44
793.827	1881.04
794.265	667.34
794.704	281.54
795.142	183.74
795.581	154.14
796.019	131.94
796.458	124.94
796.896	123.34
797.334	129.14
797.773	157.14
798.211	218.64
798.649	445.54
799.087	1033.64
799.526	1584.94
799.964	2007.94
800.402	1961.34
800.84	749.94
801.278	296.34
801.716	184.44
802.154	158.64
802.592	141.94
803.03	141.44
803.468	136.74
803.906	144.74
804.344	152.44
804.782	133.84
805.22	130.94
805.658	128.14
806.096	150.74
806.533	157.54
806.971	170.54
807.409	219.74
807.847	315.34
808.284	681.34
808.722	1881.44
809.16	3237.44
809.597	3117.34
810.035	5376.04
810.472	5537.94
810.91	2029.74
811.347	774.84
811.785	394.74
812.222	252.94
812.66	193.64
813.097	158.94
813.535	137.54
813.972	124.54
814.409	122.04
814.846	115.34
815.284	101.24
815.721	103.74
816.158	104.64
816.595	128.34
817.032	187.84
817.47	198.94
817.907	174.14
818.344	164.24
818.781	123.94
819.218	101.94
819.655	126.94
820.092	183.94
820.529	210.54
820.966	170.24
821.403	129.14
821.839	112.64
822.276	104.34
822.713	125.64
823.15	127.54
823.587	116.44
824.023	148.14
824.46	310.74
824.897	904.94
825.333	1332.54
825.77	561.94
826.206	229.34
826.643	133.74
827.08	103.54
827.516	75.54
827.953	77.64
828.389	87.74
828.825	71.44
829.262	66.64
829.698	61.64
830.135	65.04
830.571	62.34
831.007	60.74
831.443	62.04
831.88	61.34
832.316	61.24
832.752	66.34
833.188	67.94
833.624	62.54
834.06	68.34
834.497	70.44
834.933	75.34
835.369	73.44
835.805	69.04
836.241	79.34
836.677	70.34
837.112	85.34
837.548	113.84
837.984	133.14
838.42	199.04
838.856	506.14
839.292	1518.84
839.727	2242.34
840.163	1053.94
840.599	945.84
841.034	2026.74
841.47	2038.24
841.906	748.34
842.341	335.94
842.777	238.44
843.212	334.84
843.648	324.44
844.083	156.84
844.519	101.14
844.954	78.54
845.39	58.04
845.825	58.94
846.261	61.84
846.696	55.94
847.131	52.94
847.566	59.24
848.002	49.74
848.437	63.04
848.872	63.44
849.307	64.94
849.742	85.44
850.177	186.24
850.613	563.24
851.048	852.94
851.483	367.84
851.918	157.14
852.353	87.34
852.788	63.44
853.223	61.54
853.657	54.44
854.092	46.64
854.527	35.04
854.962	45.24
855.397	44.54
855.832	48.34
856.266	36.14
856.701	37.64
857.136	42.04
857.57	40.54
858.005	45.04
858.44	57.94
858.874	41.94
859.309	54.44
859.743	41.24
860.178	45.44
860.612	42.44
861.047	56.14
861.481	67.54
861.915	72.04
862.35	48.94
862.784	29.74
863.218	43.84
863.653	40.34
864.087	47.84
864.521	48.54
864.955	73.04
865.39	153.74
865.824	173.14
866.258	108.94
866.692	161.44
867.126	165.94
867.56	97.44
867.994	48.64
868.428	35.14
868.862	46.94
869.296	52.44
869.73	57.54
870.164	47.24
870.598	46.14
871.031	35.94
871.465	31.24
871.899	34.24
872.333	20.34
872.766	24.04
873.2	20.24
873.634	34.24
874.067	28.64
874.501	25.64
874.935	31.54
875.368	30.44
875.802	26.64
876.235	21.54
876.669	20.04
877.102	26.54
877.535	28.94
877.969	21.94
878.402	22.44
878.836	16.94
879.269	25.14
879.702	22.74
880.135	21.84
880.569	17.84
881.002	27.04
881.435	29.34
881.868	21.14
882.301	25.04
882.734	14.54
883.167	19.44
883.601	16.84
884.034	18.84
884.467	17.14
884.899	19.54
885.332	18.84
885.765	17.64
886.198	15.14
886.631	17.94
887.064	20.94
887.497	18.84
887.929	30.04
888.362	12.14
888.795	10.04
889.228	21.24
889.66	17.34
890.093	18.64
890.526	14.84
890.958	13.24
891.391	19.94
891.823	22.14
892.256	13.94
892.688	20.54
893.121	13.74
893.553	18.74
893.985	18.34
894.418	20.14
894.85	17.64
895.282	18.44
895.715	15.74
896.147	15.44
896.579	14.74
897.011	18.94
897.444	18.14
897.876	14.74
898.308	14.94
898.74	8.04
899.172	16.14
899.604	24.34
900.036	10.94
900.468	13.24
900.9	15.64
901.332	22.34
901.764	13.54
902.196	17.54
902.628	20.84
903.06	15.34
903.491	27.84
903.923	20.64
904.355	23.24
904.787	26.84
905.218	19.24
905.65	21.74
906.082	14.24
906.513	14.54
906.945	15.14
907.376	9.14
907.808	20.54
908.239	21.24
908.671	15.94
909.102	18.54
909.534	24.44
909.965	47.24
910.397	92.34
910.828	317.14
911.259	465.14
911.691	217.24
912.122	104.24
912.553	51.04
912.984	35.64
913.415	26.84
913.847	20.54
914.278	17.14
914.709	12.94
915.14	17.84
915.571	23.24
916.002	13.64
916.433	17.84
916.864	16.24
917.295	7.44
917.726	19.24
918.157	20.24
918.587	36.44
919.018	22.24
919.449	24.64
919.88	24.94
920.311	32.04
920.741	45.64
921.172	165.84
921.603	157.34
922.033	75.74
922.464	46.44
922.895	23.64
923.325	24.14
923.756	16.04
924.186	14.64
924.617	21.84
925.047	46.94
925.478	60.34
925.908	47.04
926.338	25.34
926.769	20.64
927.199	23.74
927.629	9.84
928.06	17.14
928.49	13.54
928.92	13.04
929.35	9.64
929.78	7.34
930.21	7.64
930.641	11.74
931.071	15.44
931.501	7.94
931.931	8.54
932.361	8.44
932.791	0.64
933.221	-0.86
933.651	8.94
934.08	20.24
934.51	22.54
934.94	10.64
935.37	12.24
935.8	9.64
936.229	11.04
936.659	11.04
937.089	1.44
937.519	11.54
937.948	22.44
938.378	16.14
938.807	8.64
939.237	6.04
939.666	6.24
940.096	-4.06
940.525	9.24
940.955	3.04
941.384	-1.56
941.814	-4.86
942.243	-0.06
942.672	10.24
943.102	0.74
943.531	-2.86
943.96	9.54
944.39	4.04
944.819	3.24
945.248	0.94
945.677	2.84
946.106	6.94
946.535	6.04
946.964	-1.06
947.393	-0.66
947.822	4.24
948.251	-2.56
948.68	1.24
949.109	0.74
949.538	2.44
949.967	4.14
950.396	5.24
950.825	2.84
951.254	3.54
951.682	-6.66
952.111	3.54
952.54	4.24
952.969	-3.56
953.397	-9.96
953.826	3.14
954.254	-3.26
954.683	2.64
955.112	2.74
955.54	-1.76
955.969	3.54
956.397	0.14
956.826	0.84
957.254	7.64
957.682	1.34
958.111	-1.66
958.539	2.74
958.967	1.34
959.396	1.54
959.824	0.54
960.252	7.24
960.68	-1.46
961.109	-1.26
961.537	-1.76
961.965	-1.86
962.393	4.14
962.821	-1.46
963.249	5.94
963.677	5.64
964.105	3.14
964.533	41.54
964.961	39.74
965.389	18.04
965.817	8.74
966.245	-2.56
966.672	-3.66
967.1	-9.76
967.528	1.24
967.956	-2.36
968.383	-0.06
968.811	-0.26
969.239	2.54
969.666	-6.96
970.094	-0.76
970.522	10.04
970.949	0.24
971.377	-1.06
971.804	-2.16
972.232	1.14
972.659	-1.36
973.087	-8.46
973.514	-6.26
973.941	-6.26
974.369	4.34
974.796	-2.36
975.223	1.94
975.651	-0.96
976.078	6.44
976.505	-8.76
976.932	4.64
977.359	12.34
977.786	12.94
978.214	-1.86
978.641	-1.66
979.068	-3.16
979.495	-4.16
979.922	-0.76
980.349	-8.06
980.776	7.14
981.202	-0.66
981.629	4.04
982.056	1.64
982.483	-5.06
982.91	-1.66
983.337	-11.46
983.763	6.34
984.19	-5.66
984.617	-5.16
985.043	-4.16
985.47	0.14
985.897	2.04
986.323	-7.56
986.75	7.54
987.176	-3.06
987.603	-5.56
988.029	1.04
988.456	-0.86
988.882	5.34
989.308	-9.16
989.735	-5.86
990.161	0.34
990.587	-1.26
991.014	-0.16
991.44	8.34
991.866	-4.86
992.292	1.44
992.719	-6.06
993.145	-2.06
993.571	-10.46
993.997	-8.46
994.423	4.24
994.849	-2.96
995.275	1.44
995.701	-1.86
996.127	-0.36
996.553	0.34
996.979	-6.76
997.405	-1.26
997.83	-9.46
998.256	-16.36
998.682	-3.96
999.108	-4.46
999.534	-5.06
999.959	-5.26
1000.385	-6.16
1000.811	-3.56
1001.236	-8.36
1001.662	-6.26
1002.087	-8.16
1002.513	-0.46
1002.938	5.44
1003.364	-0.96
1003.789	1.04
1004.215	2.44
1004.64	1.44
1005.066	3.44
1005.491	4.84
1005.916	-2.66
1006.342	-2.66
1006.767	-13.16
1007.192	4.24
1007.617	-3.06
1008.042	-4.36
1008.468	-2.26
1008.893	-2.26
1009.318	4.54
1009.743	3.74
1010.168	3.04
1010.593	2.44
1011.018	-6.56
1011.443	1.24
1011.868	0.54
1012.293	-7.16
1012.718	-13.46
1013.143	-5.36
1013.567	-0.76
1013.992	-3.96
1014.417	-13.16
1014.842	1.94
1015.267	-3.26
1015.691	-3.76
1016.116	7.84
1016.541	3.54
1016.965	1.24
1017.39	-3.56
1017.814	0.54
1018.239	0.64
1018.663	-6.76
1019.088	-13.06
1019.512	-8.16
1019.937	-0.66
1020.361	-0.06
1020.785	-9.86
1021.21	-1.56
1021.634	-0.26
1022.058	4.24
1022.483	-0.66
1022.907	-4.76
1023.331	-7.36
1023.755	0.24
1024.179	-3.56
1024.604	-9.36
1025.028	-6.86
1025.452	-7.76
1025.876	-0.86
1026.3	-1.16
1026.724	-10.46
1027.148	-0.96
1027.572	-6.06
1027.996	-7.86
1028.42	-6.36
1028.843	-4.76
1029.267	-10.06
1029.691	-2.26
1030.115	-9.56
1030.539	-7.26
1030.962	-5.96
1031.386	-11.16
1031.81	-3.56
1032.233	2.74
1032.657	-2.66
1033.08	0.34
1033.504	-2.56
1033.927	-7.36
1034.351	-0.66
1034.774	-6.86
1035.198	0.44
1035.621	-6.76
1036.045	-8.06
1036.468	0.24
1036.891	-7.86
1037.315	-10.16
1037.738	-8.66
1038.161	-3.26
1038.584	-4.16
1039.008	-3.96
1039.431	-8.06
1039.854	4.34
1040.277	-7.96
1040.7	-12.26
1041.123	-3.96
1041.546	-12.16
1041.969	-4.26
1042.392	-5.76
1042.815	-1.16
1043.238	0.44
1043.661	5.64
1044.084	-4.46
1044.507	-8.66
1044.93	-6.76
1045.352	-4.46
1045.775	4.14
1046.198	-2.16
1046.621	2.34
1047.043	-2.46
1047.466	1.74
1047.889	-6.56
1048.311	-7.16
1048.734	0.74
1049.156	-0.96
1049.579	-1.06
1050.001	-0.56
1050.424	0.74
1050.846	-6.36
1051.269	-6.66
1051.691	-5.76
1052.113	-7.36
1052.536	-8.56
1052.958	-2.96
1053.38	-1.96
1053.802	-8.86
1054.225	-2.06
1054.647	-11.26
1055.069	-6.46
1055.491	1.74
1055.913	-8.66
1056.335	0.84
1056.757	-5.16
1057.179	-9.56
1057.601	-8.56
1058.023	-5.96
1058.445	-1.76
1058.867	-0.56
1059.289	-1.06
1059.711	-11.56
1060.133	-1.06
1060.555	-4.26
1060.976	-8.76
1061.398	-7.26
1061.82	-6.76
1062.241	-8.26
1062.663	-7.16
1063.085	-2.96
1063.506	-1.46
1063.928	-0.96
1064.35	-1.46
1064.771	-9.06
1065.193	-0.76
1065.614	-9.56
1066.035	-3.26
1066.457	-4.66
1066.878	-0.56
1067.3	-3.56
1067.721	-0.96
1068.142	-0.76
1068.564	-4.36
1068.985	-5.36
1069.406	-11.66
1069.827	-6.06
1070.248	0.74
1070.67	-6.86
1071.091	-7.06
1071.512	-1.86
1071.933	-8.56
1072.354	-6.96
1072.775	-4.76
1073.196	-5.36
1073.617	-4.46
1074.038	-9.66
1074.459	-2.26
1074.88	-9.86
1075.3	0.84
1075.721	-5.36
1076.142	1.34
1076.563	-6.36
1076.983	-7.36
1077.404	-5.56
1077.825	-7.76
1078.246	-2.46
1078.666	-13.76
1079.087	-3.26
1079.507	-4.76
1079.928	-1.76
1080.348	-5.86
1080.769	-4.66
1081.189	1.64
1081.61	0.24
1082.03	-1.76
1082.451	-6.56
1082.871	-2.76
1083.291	-6.66
1083.711	-6.36
1084.132	-3.76
1084.552	-2.96
1084.972	4.44
1085.392	-8.46
1085.813	-11.86
1086.233	-6.66
1086.653	-3.56
1087.073	-3.06
1087.493	-7.36
1087.913	-5.36
1088.333	-0.56
1088.753	-4.86
1089.173	0.84
1089.593	-8.06
1090.013	3.94
1090.433	0.24
1090.852	-4.86
1091.272	0.64
1091.692	-9.66
1092.112	-0.86
1092.531	-3.86
1092.951	-12.96
1093.371	-3.06
1093.79	3.44
1094.21	-8.26
1094.63	-5.36
1095.049	-3.76
1095.469	-5.56
1095.888	-6.76
1096.308	-2.26
1096.727	0.04
1097.146	-5.36
1097.566	-1.56
1097.985	-13.56
1098.405	0.14
1098.824	-9.46
1099.243	-9.16
1099.662	-11.36
1100.082	-2.06
1100.501	-2.26
1100.92	-5.36
1101.339	1.44
1101.758	-4.06
