Data from 20171114-ORNL-Ar_H_NY_Subt18_08-07-41-262.txt Node
Date: Tue Nov 14 08:07:41 EST 2017
User: Ender
Spectrometer: HR+D1039
Trigger mode: 0
Integration Time (sec): 2.730000E-2
Scans to average: 10
Electric dark correction enabled: true
Nonlinearity correction enabled: false
Boxcar width: 0
XAxis mode: Wavelengths
Number of Pixels in Spectrum: 2048
>>>>>Begin Spectral Data<<<<<
187.836	1.65
188.309	1.65
188.782	1.65
189.255	1.05
189.728	-2.15
190.201	3.05
190.674	3.15
191.147	1.45
191.619	-5.95
192.092	0.95
192.565	1.65
193.038	1.05
193.511	1.95
193.984	0.35
194.456	-3.95
194.929	-2.95
195.402	-1.15
195.874	-0.15
196.347	-7.25
196.82	-9.35
197.292	3.35
197.765	-3.05
198.237	-5.35
198.71	-1.85
199.182	-1.55
199.655	-2.55
200.127	1.05
200.6	-0.05
201.072	-2.95
201.544	-3.45
202.017	-3.65
202.489	1.35
202.961	1.15
203.433	1.55
203.906	-9.25
204.378	-8.75
204.85	-3.65
205.322	-14.75
205.794	-4.15
206.266	-6.05
206.739	-8.25
207.211	-0.55
207.683	-9.05
208.155	-0.35
208.627	-2.35
209.099	-5.75
209.57	-12.95
210.042	-5.95
210.514	1.05
210.986	-0.35
211.458	-10.75
211.93	-5.85
212.402	3.15
212.873	-9.55
213.345	-8.85
213.817	-7.55
214.288	-4.75
214.76	-8.55
215.232	-9.35
215.703	-6.15
216.175	-1.35
216.646	-5.45
217.118	-4.85
217.589	2.15
218.061	-2.75
218.532	-0.85
219.004	-1.55
219.475	-3.15
219.946	-1.35
220.418	-2.55
220.889	4.35
221.36	-0.05
221.832	0.45
222.303	-6.15
222.774	-1.75
223.245	-9.45
223.717	-7.35
224.188	-2.15
224.659	-6.35
225.13	-1.05
225.601	-6.35
226.072	0.65
226.543	-2.35
227.014	4.65
227.485	-3.75
227.956	-3.75
228.427	-0.85
228.898	4.35
229.369	3.05
229.839	-6.65
230.31	-9.25
230.781	-3.25
231.252	-4.15
231.722	0.55
232.193	-0.25
232.664	-1.85
233.135	-1.45
233.605	-0.85
234.076	-7.05
234.546	5.95
235.017	2.55
235.487	-0.25
235.958	-1.15
236.428	-3.15
236.899	1.65
237.369	2.75
237.84	-5.55
238.31	4.35
238.78	0.85
239.251	1.05
239.721	3.25
240.191	-2.75
240.662	-10.25
241.132	0.05
241.602	-4.55
242.072	3.15
242.542	3.05
243.013	0.75
243.483	2.65
243.953	-0.05
244.423	-0.35
244.893	-6.45
245.363	0.45
245.833	-2.35
246.303	-1.55
246.773	5.35
247.243	6.25
247.712	-0.65
248.182	11.25
248.652	2.75
249.122	-2.85
249.592	10.85
250.061	23.25
250.531	30.45
251.001	17.75
251.471	15.25
251.94	12.75
252.41	5.45
252.879	-3.15
253.349	12.35
253.818	5.65
254.288	-1.85
254.757	1.75
255.227	6.05
255.696	-0.05
256.166	7.35
256.635	3.85
257.105	5.75
257.574	7.25
258.043	2.85
258.513	6.15
258.982	14.35
259.451	5.75
259.92	11.45
260.389	10.05
260.859	12.35
261.328	9.25
261.797	16.75
262.266	7.25
262.735	13.25
263.204	3.25
263.673	1.65
264.142	6.45
264.611	-6.45
265.08	2.85
265.549	-3.25
266.018	3.65
266.487	-1.65
266.955	-1.35
267.424	0.35
267.893	-2.35
268.362	-0.65
268.83	-3.25
269.299	10.35
269.768	5.35
270.236	5.55
270.705	2.55
271.174	7.65
271.642	3.05
272.111	12.65
272.579	13.35
273.048	15.35
273.516	21.85
273.985	19.45
274.453	23.25
274.922	18.65
275.39	7.15
275.858	6.55
276.327	6.65
276.795	13.65
277.263	7.05
277.731	26.85
278.2	43.15
278.668	53.35
279.136	40.05
279.604	17.15
280.072	9.05
280.54	10.55
281.008	8.45
281.477	12.15
281.945	10.85
282.413	12.35
282.881	12.65
283.348	5.85
283.816	15.85
284.284	14.15
284.752	20.85
285.22	12.35
285.688	13.65
286.156	22.05
286.623	42.45
287.091	47.15
287.559	26.25
288.026	19.85
288.494	14.65
288.962	5.75
289.429	5.25
289.897	14.15
290.364	5.35
290.832	13.45
291.3	17.85
291.767	14.95
292.234	15.65
292.702	14.45
293.169	15.85
293.637	20.85
294.104	20.95
294.571	6.35
295.039	13.55
295.506	12.15
295.973	14.65
296.44	10.35
296.908	13.85
297.375	14.35
297.842	16.55
298.309	14.65
298.776	7.95
299.243	10.85
299.71	10.15
300.177	19.75
300.644	15.75
301.111	16.75
301.578	26.85
302.045	14.85
302.512	21.45
302.979	20.85
303.446	16.35
303.913	14.05
304.379	16.35
304.846	20.05
305.313	24.75
305.78	23.75
306.246	18.95
306.713	19.95
307.18	21.45
307.646	25.65
308.113	23.95
308.579	17.25
309.046	14.25
309.512	25.25
309.979	18.95
310.445	24.35
310.912	22.45
311.378	25.25
311.845	24.75
312.311	24.55
312.777	25.55
313.244	29.75
313.71	27.55
314.176	26.95
314.642	29.85
315.109	30.05
315.575	32.05
316.041	35.55
316.507	31.05
316.973	39.55
317.439	30.85
317.905	32.75
318.371	28.45
318.837	31.95
319.303	29.75
319.769	26.65
320.235	21.65
320.701	26.95
321.167	29.45
321.633	28.65
322.099	37.75
322.564	36.85
323.03	33.65
323.496	33.15
323.962	37.25
324.427	27.55
324.893	40.05
325.359	37.05
325.824	32.85
326.29	30.75
326.755	36.75
327.221	35.25
327.686	35.55
328.152	38.25
328.617	39.25
329.083	46.85
329.548	39.65
330.014	43.15
330.479	36.65
330.944	35.95
331.41	35.55
331.875	36.05
332.34	38.45
332.805	37.25
333.271	42.85
333.736	37.75
334.201	50.95
334.666	47.65
335.131	47.65
335.596	46.65
336.061	42.25
336.526	34.65
336.991	43.55
337.456	51.95
337.921	43.65
338.386	39.25
338.851	37.65
339.316	40.95
339.781	38.15
340.246	46.95
340.711	40.85
341.175	43.05
341.64	35.05
342.105	41.45
342.569	50.35
343.034	55.35
343.499	58.05
343.963	41.05
344.428	55.45
344.893	49.55
345.357	53.35
345.822	50.75
346.286	50.85
346.751	64.55
347.215	58.65
347.679	67.85
348.144	83.25
348.608	74.55
349.073	64.65
349.537	71.45
350.001	66.95
350.465	80.55
350.93	70.95
351.394	75.95
351.858	61.95
352.322	72.95
352.786	77.25
353.25	93.05
353.715	96.05
354.179	89.75
354.643	109.25
355.107	108.05
355.571	93.05
356.035	96.65
356.498	102.35
356.962	111.15
357.426	119.65
357.89	102.85
358.354	84.65
358.818	77.85
359.281	73.55
359.745	68.75
360.209	67.25
360.673	63.75
361.136	76.85
361.6	75.75
362.064	71.35
362.527	77.05
362.991	71.65
363.454	74.45
363.918	74.85
364.381	72.55
364.845	73.75
365.308	79.05
365.772	78.05
366.235	89.95
366.698	74.85
367.162	78.35
367.625	80.75
368.088	70.95
368.552	81.85
369.015	82.45
369.478	94.55
369.941	97.45
370.404	84.95
370.867	94.25
371.331	101.75
371.794	101.55
372.257	100.35
372.72	109.15
373.183	104.25
373.646	97.05
374.109	91.15
374.572	98.35
375.035	100.65
375.497	102.65
375.96	98.65
376.423	98.05
376.886	102.35
377.349	97.15
377.811	93.25
378.274	92.75
378.737	103.05
379.199	110.75
379.662	101.85
380.125	113.75
380.587	108.35
381.05	116.95
381.512	124.15
381.975	119.85
382.437	114.95
382.9	123.85
383.362	115.55
383.825	130.45
384.287	135.95
384.75	130.95
385.212	137.55
385.674	129.75
386.136	129.75
386.599	125.75
387.061	121.75
387.523	121.95
387.985	125.15
388.447	139.35
388.91	135.95
389.372	149.25
389.834	140.95
390.296	137.95
390.758	146.75
391.22	163.15
391.682	200.45
392.144	289.15
392.606	215.95
393.068	154.65
393.529	163.95
393.991	143.55
394.453	145.45
394.915	144.25
395.377	181.95
395.838	205.95
396.3	154.15
396.762	135.05
397.224	126.45
397.685	121.85
398.147	120.55
398.608	119.15
399.07	115.65
399.531	123.75
399.993	136.65
400.454	143.35
400.916	141.25
401.377	140.25
401.839	144.65
402.3	138.75
402.762	153.35
403.223	167.35
403.684	163.65
404.145	148.65
404.607	154.45
405.068	150.85
405.529	158.85
405.99	176.85
406.451	159.85
406.913	166.55
407.374	154.55
407.835	154.65
408.296	159.95
408.757	163.35
409.218	177.35
409.679	175.95
410.14	164.05
410.601	170.65
411.062	176.05
411.522	179.75
411.983	184.65
412.444	162.45
412.905	166.55
413.366	171.05
413.826	182.05
414.287	201.95
414.748	249.15
415.208	228.95
415.669	192.95
416.13	197.95
416.59	196.05
417.051	201.25
417.511	206.55
417.972	224.05
418.432	228.55
418.893	266.75
419.353	241.75
419.814	187.85
420.274	172.85
420.734	171.65
421.195	188.65
421.655	183.65
422.115	184.65
422.576	184.25
423.036	193.55
423.496	196.05
423.956	204.05
424.416	215.95
424.876	251.65
425.336	249.05
425.797	248.55
426.257	243.75
426.717	226.75
427.177	223.85
427.637	210.45
428.097	220.35
428.556	232.65
429.016	259.65
429.476	252.15
429.936	261.45
430.396	266.45
430.856	278.25
431.315	308.45
431.775	339.55
432.235	364.55
432.694	332.85
433.154	340.35
433.614	378.25
434.073	325.85
434.533	271.05
434.993	259.75
435.452	272.75
435.912	282.25
436.371	276.45
436.83	270.75
437.29	267.75
437.749	236.65
438.209	233.95
438.668	260.35
439.127	281.45
439.587	257.65
440.046	234.95
440.505	246.35
440.964	267.45
441.424	307.65
441.883	297.45
442.342	251.95
442.801	221.75
443.26	212.45
443.719	208.25
444.178	211.55
444.637	202.45
445.096	208.95
445.555	214.35
446.014	212.05
446.473	215.65
446.932	218.25
447.391	214.45
447.849	220.85
448.308	215.15
448.767	206.75
449.226	232.75
449.685	226.15
450.143	242.45
450.602	225.35
451.061	220.15
451.519	218.35
451.978	221.45
452.436	221.85
452.895	226.15
453.353	241.35
453.812	228.05
454.27	227.85
454.729	225.65
455.187	231.45
455.646	231.75
456.104	232.95
456.562	254.55
457.021	255.45
457.479	250.45
457.937	264.85
458.395	256.35
458.854	233.05
459.312	248.75
459.77	260.55
460.228	243.45
460.686	232.75
461.144	235.95
461.602	229.15
462.06	231.05
462.518	251.45
462.976	245.05
463.434	248.95
463.892	259.05
464.35	262.95
464.808	268.85
465.266	256.65
465.724	262.35
466.181	259.05
466.639	261.45
467.097	275.25
467.555	288.25
468.012	290.35
468.47	291.15
468.928	315.05
469.385	332.05
469.843	336.45
470.3	328.85
470.758	346.45
471.215	359.05
471.673	389.15
472.13	387.05
472.588	395.05
473.045	357.85
473.503	364.55
473.96	379.25
474.417	384.85
474.875	410.75
475.332	467.45
475.789	447.65
476.246	444.35
476.704	469.15
477.161	489.65
477.618	500.05
478.075	544.15
478.532	594.95
478.989	668.85
479.446	782.05
479.903	743.15
480.36	785.85
480.817	828.15
481.274	928.95
481.731	1034.15
482.188	1125.05
482.645	1253.15
483.102	1360.05
483.558	1492.15
484.015	1542.55
484.472	1522.75
484.929	1477.15
485.385	1422.15
485.842	1390.05
486.299	1316.55
486.755	1241.15
487.212	1041.85
487.668	887.85
488.125	819.65
488.582	747.95
489.038	722.65
489.494	679.65
489.951	654.95
490.407	646.35
490.864	620.55
491.32	606.05
491.776	611.15
492.233	629.15
492.689	588.05
493.145	579.15
493.602	572.35
494.058	597.55
494.514	591.45
494.97	610.05
495.426	621.85
495.882	603.65
496.338	591.75
496.794	593.85
497.251	587.15
497.707	598.15
498.163	606.65
498.618	614.15
499.074	617.45
499.53	649.95
499.986	654.45
500.442	627.15
500.898	601.65
501.354	603.15
501.809	606.55
502.265	614.05
502.721	648.15
503.177	651.55
503.632	648.95
504.088	646.45
504.543	691.65
504.999	683.65
505.455	644.75
505.91	614.25
506.366	602.65
506.821	599.45
507.277	599.35
507.732	601.35
508.187	592.05
508.643	613.45
509.098	611.35
509.553	627.15
510.009	640.45
510.464	644.65
510.919	666.35
511.375	666.55
511.83	680.55
512.285	694.35
512.74	728.95
513.195	751.35
513.65	741.65
514.105	739.25
514.56	735.35
515.015	760.95
515.47	777.05
515.925	765.95
516.38	755.15
516.835	769.15
517.29	762.05
517.745	754.35
518.2	727.95
518.655	721.75
519.109	706.45
519.564	718.65
520.019	708.85
520.474	696.85
520.928	694.45
521.383	690.45
521.838	684.55
522.292	683.05
522.747	687.45
523.201	674.55
523.656	676.85
524.11	670.95
524.565	665.45
525.019	674.15
525.474	678.45
525.928	676.35
526.382	665.05
526.837	664.15
527.291	679.25
527.745	677.25
528.2	672.25
528.654	669.65
529.108	663.15
529.562	666.55
530.016	669.05
530.47	664.25
530.925	666.25
531.379	666.85
531.833	683.25
532.287	676.45
532.741	676.55
533.195	674.25
533.649	685.95
534.103	693.75
534.556	679.45
535.01	686.25
535.464	686.35
535.918	704.65
536.372	691.35
536.826	685.55
537.279	679.45
537.733	687.75
538.187	689.65
538.64	684.35
539.094	700.75
539.548	710.85
540.001	689.75
540.455	706.65
540.908	708.15
541.362	714.75
541.815	718.55
542.269	745.05
542.722	733.85
543.175	749.95
543.629	744.55
544.082	746.95
544.536	754.15
544.989	760.85
545.442	766.85
545.895	761.75
546.349	763.35
546.802	768.85
547.255	764.45
547.708	772.35
548.161	789.55
548.614	799.15
549.067	804.45
549.52	784.95
549.973	784.75
550.426	780.45
550.879	754.75
551.332	772.95
551.785	784.05
552.238	777.45
552.691	798.55
553.144	805.25
553.596	834.25
554.049	833.85
554.502	865.65
554.955	879.95
555.407	882.95
555.86	866.15
556.313	864.05
556.765	852.25
557.218	850.25
557.67	851.75
558.123	834.75
558.576	850.45
559.028	847.35
559.48	855.15
559.933	840.25
560.385	804.15
560.838	781.75
561.29	754.65
561.742	751.45
562.195	745.55
562.647	747.35
563.099	740.25
563.551	750.15
564.004	769.25
564.456	752.75
564.908	746.05
565.36	731.15
565.812	710.85
566.264	712.15
566.716	708.65
567.168	690.85
567.62	701.85
568.072	679.85
568.524	676.05
568.976	664.85
569.428	659.35
569.88	646.45
570.332	662.95
570.784	668.85
571.235	666.35
571.687	669.15
572.139	677.65
572.59	689.55
573.042	685.05
573.494	691.55
573.945	686.25
574.397	660.05
574.849	670.65
575.3	673.05
575.752	667.15
576.203	653.15
576.655	670.05
577.106	646.35
577.557	649.75
578.009	642.65
578.46	641.85
578.912	651.55
579.363	644.05
579.814	648.05
580.265	647.85
580.717	653.75
581.168	650.55
581.619	659.95
582.07	654.05
582.521	659.55
582.972	647.55
583.423	657.05
583.875	663.95
584.326	682.15
584.777	731.65
585.227	811.45
585.678	895.45
586.129	985.65
586.58	1060.25
587.031	1137.25
587.482	1290.05
587.933	1465.75
588.384	1279.75
588.834	957.75
589.285	779.85
589.736	754.85
590.186	751.75
590.637	744.85
591.088	732.15
591.538	708.15
591.989	708.15
592.439	706.75
592.89	706.65
593.34	691.45
593.791	689.45
594.241	684.65
594.692	690.05
595.142	691.45
595.593	681.05
596.043	693.55
596.493	692.15
596.943	704.25
597.394	707.65
597.844	696.75
598.294	716.15
598.744	740.85
599.195	763.95
599.645	801.85
600.095	842.15
600.545	901.25
600.995	953.95
601.445	1013.45
601.895	1061.15
602.345	1106.15
602.795	1082.05
603.245	1029.55
603.695	990.15
604.145	937.05
604.594	898.25
605.044	835.95
605.494	776.15
605.944	735.65
606.393	721.75
606.843	721.35
607.293	720.75
607.743	716.35
608.192	720.35
608.642	737.25
609.091	755.55
609.541	756.65
609.99	751.05
610.44	747.05
610.889	709.95
611.339	687.15
611.788	673.25
612.238	686.95
612.687	708.45
613.136	701.55
613.586	725.75
614.035	723.35
614.484	735.15
614.933	742.85
615.383	731.45
615.832	723.95
616.281	708.45
616.73	663.75
617.179	657.75
617.628	634.45
618.077	614.05
618.526	613.85
618.975	597.85
619.424	600.55
619.873	605.75
620.322	602.75
620.771	591.15
621.22	587.75
621.669	589.65
622.118	582.25
622.567	573.15
623.015	555.95
623.464	555.35
623.913	547.35
624.361	548.45
624.81	542.15
625.259	546.05
625.707	545.35
626.156	542.45
626.604	551.75
627.053	549.35
627.501	551.45
627.95	560.05
628.398	557.25
628.847	555.55
629.295	556.95
629.744	552.35
630.192	554.55
630.64	556.05
631.089	561.25
631.537	557.85
631.985	579.25
632.433	586.65
632.881	597.85
633.33	647.45
633.778	627.55
634.226	557.85
634.674	559.45
635.122	575.55
635.57	589.75
636.018	622.05
636.466	568.55
636.914	549.85
637.362	561.65
637.81	558.45
638.258	567.55
638.705	561.75
639.153	589.85
639.601	601.25
640.049	624.95
640.497	648.15
640.944	676.75
641.392	630.25
641.84	601.55
642.287	567.55
642.735	557.65
643.182	559.85
643.63	557.65
644.078	565.65
644.525	579.35
644.973	587.35
645.42	590.45
645.867	604.45
646.315	634.45
646.762	651.45
647.21	680.35
647.657	697.75
648.104	731.35
648.551	761.75
648.999	822.25
649.446	896.25
649.893	986.25
650.34	1141.05
650.787	1376.55
651.234	1715.65
651.682	2230.85
652.129	3080.25
652.576	4450.05
653.023	6565.95
653.47	8975.25
653.917	11154.15
654.363	12820.25
654.81	14171.25
655.257	13433.15
655.704	8758.55
656.151	5168.95
656.598	3344.75
657.044	2370.25
657.491	1822.35
657.938	1467.75
658.385	1223.75
658.831	1050.05
659.278	954.25
659.724	839.65
660.171	766.45
660.618	707.15
661.064	665.65
661.511	656.05
661.957	647.65
662.404	637.05
662.85	631.85
663.296	607.75
663.743	553.95
664.189	537.25
664.635	523.25
665.082	515.65
665.528	514.35
665.974	508.25
666.42	497.35
666.867	499.05
667.313	478.75
667.759	477.05
668.205	470.65
668.651	474.85
669.097	472.05
669.543	496.55
669.989	460.05
670.435	440.55
670.881	435.15
671.327	445.75
671.773	461.95
672.219	482.75
672.665	525.65
673.11	569.05
673.556	612.45
674.002	654.15
674.448	639.65
674.893	531.45
675.339	464.55
675.785	432.15
676.23	406.15
676.676	386.15
677.122	371.35
677.567	364.45
678.013	361.15
678.458	346.45
678.904	355.15
679.349	342.95
679.794	341.95
680.24	343.05
680.685	343.05
681.131	333.45
681.576	338.55
682.021	341.35
682.466	339.35
682.912	344.85
683.357	343.25
683.802	375.75
684.247	399.55
684.692	449.55
685.137	483.05
685.583	524.85
686.028	545.45
686.473	509.25
686.918	431.05
687.363	408.05
687.807	380.05
688.252	359.05
688.697	346.65
689.142	334.95
689.587	324.05
690.032	314.65
690.477	335.05
690.921	345.05
691.366	386.55
691.811	394.75
692.255	424.35
692.7	447.35
693.145	496.85
693.589	691.65
694.034	1114.05
694.478	1511.05
694.923	1690.85
695.367	2207.65
695.812	1160.05
696.256	488.25
696.701	361.15
697.145	337.15
697.59	330.55
698.034	309.55
698.478	322.45
698.922	321.35
699.367	324.05
699.811	330.65
700.255	345.45
700.699	382.15
701.143	417.75
701.588	469.55
702.032	509.45
702.476	500.55
702.92	482.75
703.364	484.05
703.808	631.85
704.252	1024.55
704.696	1437.75
705.14	1622.45
705.584	2057.85
706.027	1037.45
706.471	520.25
706.915	386.75
707.359	345.15
707.803	318.35
708.246	305.05
708.69	302.35
709.134	303.35
709.577	303.35
710.021	305.55
710.465	301.15
710.908	292.45
711.352	296.45
711.795	304.65
712.239	341.65
712.682	374.45
713.126	412.05
713.569	459.65
714.012	362.35
714.456	319.25
714.899	299.55
715.342	270.45
715.786	258.65
716.229	249.15
716.672	250.35
717.115	239.85
717.558	246.05
718.002	244.55
718.445	258.75
718.888	279.85
719.331	289.55
719.774	304.35
720.217	301.85
720.66	273.65
721.103	258.75
721.546	251.45
721.989	249.15
722.432	224.55
722.874	236.55
723.317	223.15
723.76	237.15
724.203	251.95
724.645	307.95
725.088	444.75
725.531	554.75
725.974	635.45
726.416	530.95
726.859	300.75
727.301	241.05
727.744	235.25
728.187	229.85
728.629	236.55
729.071	239.05
729.514	252.95
729.956	267.25
730.399	279.85
730.841	286.25
731.283	271.35
731.726	260.15
732.168	256.35
732.61	259.65
733.053	282.95
733.495	308.75
733.937	345.35
734.379	392.55
734.821	431.75
735.263	523.75
735.705	835.55
736.148	1577.75
736.59	2530.75
737.032	2945.35
737.474	2382.75
737.916	777.65
738.357	419.35
738.799	320.45
739.241	294.25
739.683	276.75
740.125	285.85
740.567	296.55
741.008	305.75
741.45	313.05
741.892	311.55
742.334	335.55
742.775	350.35
743.217	334.35
743.658	266.45
744.1	250.85
744.542	260.35
744.983	303.75
745.425	334.45
745.866	339.25
746.307	275.85
746.749	278.25
747.19	315.95
747.632	452.95
748.073	881.05
748.514	1839.85
748.956	2774.15
749.397	3511.75
749.838	2912.05
750.279	2835.55
750.72	1456.75
751.162	531.05
751.603	320.45
752.044	252.15
752.485	211.45
752.926	201.05
753.367	193.95
753.808	190.45
754.249	186.85
754.69	186.55
755.131	182.45
755.572	176.15
756.013	173.95
756.453	181.35
756.894	193.35
757.335	186.25
757.776	188.25
758.216	186.15
758.657	187.25
759.098	199.15
759.538	224.75
759.979	265.95
760.42	375.95
760.86	712.55
761.301	1821.15
761.741	4367.55
762.182	6202.35
762.622	4356.35
763.063	1268.25
763.503	529.35
763.943	343.85
764.384	338.45
764.824	393.75
765.264	426.15
765.705	301.25
766.145	208.55
766.585	188.05
767.025	175.65
767.465	187.15
767.906	240.65
768.346	322.95
768.786	338.25
769.226	259.55
769.666	316.85
770.106	626.15
770.546	1555.85
770.986	2564.55
771.426	2283.65
771.866	771.85
772.306	318.25
772.745	204.15
773.185	171.85
773.625	160.85
774.065	165.05
774.505	190.65
774.944	314.35
775.384	686.15
775.824	1223.95
776.263	1176.65
776.703	503.15
777.142	212.25
777.582	155.05
778.021	139.25
778.461	145.15
778.9	138.55
779.34	136.85
779.779	116.85
780.219	106.95
780.658	106.05
781.097	101.55
781.537	112.45
781.976	109.65
782.415	110.15
782.855	107.65
783.294	103.35
783.733	105.15
784.172	111.15
784.611	102.45
785.05	103.05
785.489	109.25
785.928	116.45
786.367	123.25
786.806	118.15
787.245	131.45
787.684	132.35
788.123	142.95
788.562	133.65
789.001	121.75
789.44	119.95
789.879	110.05
790.317	117.15
790.756	124.85
791.195	128.25
791.634	145.35
792.072	204.15
792.511	360.45
792.95	1009.55
793.388	2084.35
793.827	1855.65
794.265	660.65
794.704	272.25
795.142	187.95
795.581	148.65
796.019	129.05
796.458	121.85
796.896	117.65
797.334	128.85
797.773	146.65
798.211	211.25
798.649	442.15
799.087	1006.25
799.526	1559.55
799.964	1957.55
800.402	1925.45
800.84	731.65
801.278	299.25
801.716	178.95
802.154	148.65
802.592	141.75
803.03	136.15
803.468	135.75
803.906	136.95
804.344	143.25
804.782	139.75
805.22	129.15
805.658	125.55
806.096	143.75
806.533	152.65
806.971	163.65
807.409	220.55
807.847	316.55
808.284	657.35
808.722	1851.15
809.16	3193.05
809.597	3080.65
810.035	5283.65
810.472	5532.85
810.91	2028.85
811.347	773.75
811.785	394.85
812.222	253.15
812.66	191.35
813.097	162.85
813.535	140.45
813.972	122.95
814.409	118.05
814.846	104.25
815.284	105.65
815.721	100.25
816.158	108.45
816.595	119.75
817.032	178.05
817.47	192.55
817.907	160.25
818.344	152.05
818.781	116.75
819.218	99.55
819.655	116.65
820.092	178.15
820.529	202.85
820.966	170.05
821.403	129.55
821.839	110.55
822.276	104.85
822.713	124.65
823.15	132.85
823.587	116.35
824.023	151.35
824.46	304.25
824.897	894.45
825.333	1315.75
825.77	569.15
826.206	226.45
826.643	137.55
827.08	100.15
827.516	81.05
827.953	77.75
828.389	79.35
828.825	67.05
829.262	67.05
829.698	60.75
830.135	65.55
830.571	66.05
831.007	59.55
831.443	67.45
831.88	57.35
832.316	55.55
832.752	63.45
833.188	68.65
833.624	63.25
834.06	57.75
834.497	69.45
834.933	73.65
835.369	72.15
835.805	64.15
836.241	74.45
836.677	85.65
837.112	87.95
837.548	110.05
837.984	130.05
838.42	196.75
838.856	504.55
839.292	1506.35
839.727	2223.05
840.163	1042.55
840.599	920.15
841.034	1981.55
841.47	2039.75
841.906	758.55
842.341	329.25
842.777	226.95
843.212	318.55
843.648	309.15
844.083	152.35
844.519	96.05
844.954	79.25
845.39	57.75
845.825	57.15
846.261	58.05
846.696	53.55
847.131	54.35
847.566	54.25
848.002	52.45
848.437	55.35
848.872	57.95
849.307	64.25
849.742	80.15
850.177	181.45
850.613	544.65
851.048	847.65
851.483	369.45
851.918	150.45
852.353	84.05
852.788	61.05
853.223	58.35
853.657	50.45
854.092	44.55
854.527	39.35
854.962	44.55
855.397	46.55
855.832	51.75
856.266	40.25
856.701	44.55
857.136	35.55
857.57	37.65
858.005	52.05
858.44	59.15
858.874	38.55
859.309	51.55
859.743	39.15
860.178	45.25
860.612	36.85
861.047	52.75
861.481	69.75
861.915	76.85
862.35	46.25
862.784	33.35
863.218	32.05
863.653	31.25
864.087	38.55
864.521	48.35
864.955	69.85
865.39	153.15
865.824	169.05
866.258	110.35
866.692	163.45
867.126	161.75
867.56	104.75
867.994	49.65
868.428	34.65
868.862	48.75
869.296	51.45
869.73	58.95
870.164	46.55
870.598	47.45
871.031	33.25
871.465	29.45
871.899	35.45
872.333	25.95
872.766	20.35
873.2	23.95
873.634	30.85
874.067	28.65
874.501	30.75
874.935	35.15
875.368	32.05
875.802	27.15
876.235	22.95
876.669	24.65
877.102	18.75
877.535	27.05
877.969	15.95
878.402	24.15
878.836	16.65
879.269	21.65
879.702	22.05
880.135	17.25
880.569	20.95
881.002	25.85
881.435	22.95
881.868	12.45
882.301	24.35
882.734	14.45
883.167	25.05
883.601	19.95
884.034	17.95
884.467	15.35
884.899	24.55
885.332	15.15
885.765	10.15
886.198	13.85
886.631	14.25
887.064	21.15
887.497	24.35
887.929	26.25
888.362	13.25
888.795	13.05
889.228	15.45
889.66	20.45
890.093	22.85
890.526	22.05
890.958	13.55
891.391	15.25
891.823	23.95
892.256	17.25
892.688	12.05
893.121	16.85
893.553	17.65
893.985	27.55
894.418	20.35
894.85	14.55
895.282	16.55
895.715	17.25
896.147	15.35
896.579	22.45
897.011	8.95
897.444	15.15
897.876	18.45
898.308	8.85
898.74	21.25
899.172	15.05
899.604	21.55
900.036	19.15
900.468	14.85
900.9	15.35
901.332	17.25
901.764	13.25
902.196	18.05
902.628	18.35
903.06	17.35
903.491	27.15
903.923	20.65
904.355	18.35
904.787	22.05
905.218	19.35
905.65	18.35
906.082	6.75
906.513	13.35
906.945	15.55
907.376	17.25
907.808	22.05
908.239	27.35
908.671	16.25
909.102	17.85
909.534	23.55
909.965	49.45
910.397	91.65
910.828	308.35
911.259	462.75
911.691	210.65
912.122	96.55
912.553	51.15
912.984	29.05
913.415	21.45
913.847	22.55
914.278	14.45
914.709	14.25
915.14	17.45
915.571	13.85
916.002	8.05
916.433	17.35
916.864	15.75
917.295	13.35
917.726	15.15
918.157	18.75
918.587	26.25
919.018	23.45
919.449	28.25
919.88	22.85
920.311	28.85
920.741	50.75
921.172	167.35
921.603	142.25
922.033	74.25
922.464	41.75
922.895	22.85
923.325	15.05
923.756	11.35
924.186	13.95
924.617	24.85
925.047	42.55
925.478	55.75
925.908	44.35
926.338	25.95
926.769	21.15
927.199	24.65
927.629	10.15
928.06	17.25
928.49	14.75
928.92	14.15
929.35	11.15
929.78	13.45
930.21	7.75
930.641	2.95
931.071	8.15
931.501	1.55
931.931	13.75
932.361	5.65
932.791	2.15
933.221	1.75
933.651	2.45
934.08	9.95
934.51	28.75
934.94	12.45
935.37	13.35
935.8	13.55
936.229	11.75
936.659	12.15
937.089	2.75
937.519	15.85
937.948	19.65
938.378	14.25
938.807	11.15
939.237	9.35
939.666	4.35
940.096	1.75
940.525	3.35
940.955	5.05
941.384	6.45
941.814	-2.85
942.243	-2.75
942.672	4.35
943.102	-4.45
943.531	-1.25
943.96	4.95
944.39	4.25
944.819	2.25
945.248	4.95
945.677	4.05
946.106	8.45
946.535	8.05
946.964	-0.15
947.393	0.15
947.822	1.45
948.251	-3.75
948.68	3.75
949.109	6.05
949.538	0.75
949.967	-4.45
950.396	0.65
950.825	-4.95
951.254	-3.45
951.682	-2.45
952.111	1.65
952.54	9.85
952.969	-3.65
953.397	-8.75
953.826	4.05
954.254	-5.25
954.683	1.35
955.112	0.85
955.54	5.45
955.969	2.45
956.397	-1.35
956.826	-3.65
957.254	4.15
957.682	-1.15
958.111	4.35
958.539	-0.15
958.967	3.95
959.396	1.85
959.824	1.15
960.252	4.35
960.68	-1.55
961.109	-4.65
961.537	-1.45
961.965	0.15
962.393	1.85
962.821	-7.35
963.249	-1.95
963.677	3.55
964.105	4.75
964.533	43.25
964.961	37.95
965.389	25.35
965.817	2.25
966.245	1.45
966.672	0.55
967.1	-5.85
967.528	-1.15
967.956	-6.65
968.383	-2.15
968.811	-4.75
969.239	-2.25
969.666	-5.15
970.094	2.85
970.522	1.85
970.949	-3.75
971.377	-1.95
971.804	-2.55
972.232	1.75
972.659	-0.55
973.087	2.55
973.514	-7.05
973.941	-4.95
974.369	-1.25
974.796	-0.75
975.223	-2.95
975.651	-5.85
976.078	-1.35
976.505	-4.05
976.932	5.45
977.359	14.85
977.786	18.65
978.214	1.25
978.641	1.85
979.068	-7.45
979.495	-0.45
979.922	-0.95
980.349	-1.55
980.776	2.55
981.202	-3.15
981.629	5.45
982.056	2.45
982.483	0.05
982.91	-0.25
983.337	-2.15
983.763	0.75
984.19	-7.75
984.617	0.75
985.043	-5.95
985.47	-0.95
985.897	-6.75
986.323	-7.45
986.75	-0.05
987.176	-2.65
987.603	-0.15
988.029	1.05
988.456	-3.35
988.882	2.55
989.308	-7.15
989.735	-13.15
990.161	3.35
990.587	-6.85
991.014	-3.25
991.44	5.65
991.866	3.75
992.292	-6.65
992.719	-7.05
993.145	5.25
993.571	-9.35
993.997	-6.05
994.423	-2.85
994.849	-3.25
995.275	-0.65
995.701	-5.35
996.127	-6.95
996.553	4.85
996.979	-2.05
997.405	-1.65
997.83	-0.15
998.256	-2.55
998.682	-4.55
999.108	-10.55
999.534	-1.65
999.959	0.45
1000.385	-9.85
1000.811	1.05
1001.236	-6.25
1001.662	-5.15
1002.087	-8.15
1002.513	2.75
1002.938	0.05
1003.364	-6.45
1003.789	0.65
1004.215	1.05
1004.64	-1.55
1005.066	1.85
1005.491	0.05
1005.916	-3.35
1006.342	-5.65
1006.767	-7.15
1007.192	1.45
1007.617	-1.15
1008.042	-0.65
1008.468	-3.45
1008.893	-1.65
1009.318	-1.95
1009.743	-7.05
1010.168	9.85
1010.593	3.65
1011.018	-6.15
1011.443	-0.25
1011.868	5.65
1012.293	-9.95
1012.718	-10.95
1013.143	-0.45
1013.567	0.05
1013.992	-4.45
1014.417	-17.15
1014.842	0.85
1015.267	-5.35
1015.691	-5.75
1016.116	5.45
1016.541	-0.35
1016.965	0.65
1017.39	-2.35
1017.814	-6.75
1018.239	-6.95
1018.663	-12.95
1019.088	-13.15
1019.512	-6.15
1019.937	-0.95
1020.361	-5.95
1020.785	-9.05
1021.21	-4.55
1021.634	-6.75
1022.058	-2.85
1022.483	3.45
1022.907	0.85
1023.331	-2.65
1023.755	-4.75
1024.179	-3.35
1024.604	-4.95
1025.028	-10.55
1025.452	-3.15
1025.876	-0.75
1026.3	-1.85
1026.724	-11.25
1027.148	-3.35
1027.572	-3.75
1027.996	-3.45
1028.42	-1.65
1028.843	-13.25
1029.267	-7.15
1029.691	-2.45
1030.115	-5.35
1030.539	-8.05
1030.962	-2.95
1031.386	-13.15
1031.81	-0.75
1032.233	1.05
1032.657	-4.45
1033.08	-4.95
1033.504	-8.95
1033.927	-6.65
1034.351	-6.75
1034.774	-9.05
1035.198	-3.65
1035.621	-9.15
1036.045	-8.75
1036.468	-3.65
1036.891	-6.85
1037.315	-7.35
1037.738	-7.45
1038.161	-2.75
1038.584	-5.75
1039.008	-2.55
1039.431	-0.85
1039.854	-0.05
1040.277	-7.25
1040.7	-7.25
1041.123	-0.45
1041.546	-8.75
1041.969	-0.45
1042.392	-5.05
1042.815	0.95
1043.238	2.55
1043.661	1.85
1044.084	-11.95
1044.507	-3.95
1044.93	-9.55
1045.352	-9.05
1045.775	-5.15
1046.198	-5.25
1046.621	-5.05
1047.043	-4.35
1047.466	4.25
1047.889	-3.65
1048.311	-6.15
1048.734	-7.35
1049.156	-3.15
1049.579	-1.45
1050.001	-4.25
1050.424	1.55
1050.846	-5.15
1051.269	-6.75
1051.691	-1.95
1052.113	-3.95
1052.536	-5.95
1052.958	-8.75
1053.38	-4.35
1053.802	-13.45
1054.225	-2.45
1054.647	-12.55
1055.069	-3.85
1055.491	-3.85
1055.913	-7.75
1056.335	-1.85
1056.757	-6.75
1057.179	-8.45
1057.601	-1.55
1058.023	-3.95
1058.445	-2.85
1058.867	-3.45
1059.289	-4.25
1059.711	-5.15
1060.133	-10.85
1060.555	-0.95
1060.976	-5.35
1061.398	-8.85
1061.82	-4.05
1062.241	-5.45
1062.663	-6.35
1063.085	-2.75
1063.506	5.35
1063.928	-6.95
1064.35	-3.05
1064.771	-10.95
1065.193	-0.85
1065.614	-9.25
1066.035	-4.55
1066.457	-0.85
1066.878	-3.35
1067.3	-4.85
1067.721	-3.95
1068.142	-2.85
1068.564	-2.45
1068.985	-2.35
1069.406	-1.25
1069.827	-6.95
1070.248	2.55
1070.67	-7.55
1071.091	-3.85
1071.512	-2.75
1071.933	-11.25
1072.354	-12.65
1072.775	-6.15
1073.196	-1.35
1073.617	-1.05
1074.038	-8.45
1074.459	-7.65
1074.88	-8.15
1075.3	-2.15
1075.721	-8.45
1076.142	-1.55
1076.563	-1.45
1076.983	-10.15
1077.404	-9.45
1077.825	-7.95
1078.246	-6.65
1078.666	-7.95
1079.087	-5.35
1079.507	-9.45
1079.928	-7.55
1080.348	4.15
1080.769	-4.55
1081.189	-1.45
1081.61	-3.35
1082.03	-6.85
1082.451	-11.85
1082.871	-7.35
1083.291	-7.95
1083.711	-11.75
1084.132	-8.65
1084.552	-4.05
1084.972	-5.85
1085.392	-9.45
1085.813	-8.25
1086.233	-3.65
1086.653	-8.75
1087.073	-4.95
1087.493	-7.85
1087.913	-9.45
1088.333	-7.65
1088.753	-5.65
1089.173	-1.65
1089.593	-8.55
1090.013	0.55
1090.433	-2.35
1090.852	-1.95
1091.272	-3.85
1091.692	-0.15
1092.112	-1.25
1092.531	-4.65
1092.951	-12.65
1093.371	-4.25
1093.79	-0.85
1094.21	0.15
1094.63	-3.25
1095.049	-8.05
1095.469	0.05
1095.888	-0.55
1096.308	-0.95
1096.727	2.65
1097.146	-4.35
1097.566	-1.15
1097.985	-9.25
1098.405	-2.75
1098.824	-10.65
1099.243	-6.85
1099.662	-12.65
1100.082	-7.75
1100.501	-3.85
1100.92	-12.25
1101.339	-4.05
1101.758	-8.15
