Data from 20171114-ORNL-Ar_H_NY_Subt18_08-04-22-262.txt Node
Date: Tue Nov 14 08:04:22 EST 2017
User: Ender
Spectrometer: HR+D1039
Trigger mode: 0
Integration Time (sec): 2.730000E-2
Scans to average: 10
Electric dark correction enabled: true
Nonlinearity correction enabled: false
Boxcar width: 0
XAxis mode: Wavelengths
Number of Pixels in Spectrum: 2048
>>>>>Begin Spectral Data<<<<<
187.836	-1.96
188.309	-1.96
188.782	-1.96
189.255	1.74
189.728	1.44
190.201	7.44
190.674	0.64
191.147	0.74
191.619	-7.26
192.092	0.24
192.565	3.54
193.038	0.54
193.511	-4.56
193.984	5.74
194.456	-1.66
194.929	0.04
195.402	-2.46
195.874	-4.16
196.347	-2.06
196.82	-2.76
197.292	8.54
197.765	-3.46
198.237	-7.56
198.71	-3.46
199.182	-6.46
199.655	1.04
200.127	-0.16
200.6	1.44
201.072	3.54
201.544	-3.06
202.017	-3.16
202.489	3.84
202.961	-5.76
203.433	-4.36
203.906	-6.16
204.378	-10.96
204.85	-5.56
205.322	-10.76
205.794	2.44
206.266	-2.66
206.739	-10.76
207.211	0.34
207.683	-9.86
208.155	-9.56
208.627	-6.76
209.099	5.14
209.57	-4.46
210.042	-4.56
210.514	-5.76
210.986	-3.96
211.458	-10.96
211.93	-7.06
212.402	-1.76
212.873	-4.66
213.345	-10.56
213.817	-17.66
214.288	-6.26
214.76	-13.96
215.232	2.44
215.703	-6.96
216.175	1.34
216.646	-0.46
217.118	0.34
217.589	-5.86
218.061	-3.96
218.532	-2.56
219.004	-2.26
219.475	-5.06
219.946	-0.26
220.418	-4.06
220.889	-2.66
221.36	-2.96
221.832	-8.36
222.303	-2.76
222.774	-2.56
223.245	-16.06
223.717	-2.46
224.188	-4.06
224.659	-10.56
225.13	-9.56
225.601	-2.76
226.072	-0.16
226.543	-1.66
227.014	-0.66
227.485	-5.46
227.956	-5.36
228.427	-1.76
228.898	2.84
229.369	10.64
229.839	-5.46
230.31	-7.26
230.781	-1.06
231.252	-3.56
231.722	-3.36
232.193	0.24
232.664	0.94
233.135	2.64
233.605	1.94
234.076	-11.86
234.546	-3.86
235.017	-1.16
235.487	-1.76
235.958	0.14
236.428	-1.16
236.899	1.64
237.369	9.64
237.84	-0.96
238.31	7.54
238.78	-7.26
239.251	1.04
239.721	0.84
240.191	4.94
240.662	-1.76
241.132	4.14
241.602	-5.26
242.072	-4.56
242.542	5.54
243.013	-4.56
243.483	2.64
243.953	3.64
244.423	3.54
244.893	-1.76
245.363	-1.46
245.833	4.44
246.303	-2.06
246.773	12.24
247.243	6.94
247.712	7.64
248.182	13.94
248.652	10.34
249.122	-2.86
249.592	11.54
250.061	28.44
250.531	37.14
251.001	16.64
251.471	26.34
251.94	18.44
252.41	10.04
252.879	1.24
253.349	13.04
253.818	8.54
254.288	3.34
254.757	7.44
255.227	3.84
255.696	2.14
256.166	6.94
256.635	8.14
257.105	14.34
257.574	5.34
258.043	8.04
258.513	13.94
258.982	15.64
259.451	15.14
259.92	12.94
260.389	10.54
260.859	13.54
261.328	7.64
261.797	18.34
262.266	12.04
262.735	9.14
263.204	11.64
263.673	6.44
264.142	3.84
264.611	4.14
265.08	7.14
265.549	2.14
266.018	11.04
266.487	3.04
266.955	-0.16
267.424	-0.16
267.893	13.14
268.362	1.84
268.83	2.54
269.299	15.34
269.768	2.24
270.236	5.94
270.705	3.64
271.174	5.34
271.642	10.74
272.111	9.64
272.579	16.24
273.048	27.24
273.516	33.24
273.985	28.24
274.453	25.44
274.922	23.24
275.39	19.24
275.858	3.74
276.327	11.74
276.795	21.44
277.263	8.54
277.731	27.44
278.2	54.54
278.668	58.74
279.136	47.54
279.604	17.84
280.072	11.14
280.54	11.44
281.008	7.44
281.477	14.54
281.945	4.84
282.413	13.24
282.881	17.24
283.348	9.64
283.816	22.64
284.284	17.14
284.752	17.34
285.22	11.54
285.688	23.24
286.156	18.94
286.623	48.14
287.091	50.74
287.559	28.94
288.026	15.44
288.494	18.24
288.962	7.74
289.429	7.44
289.897	15.64
290.364	16.44
290.832	20.64
291.3	16.84
291.767	15.84
292.234	18.24
292.702	12.64
293.169	20.14
293.637	22.24
294.104	19.64
294.571	10.64
295.039	18.64
295.506	14.14
295.973	21.44
296.44	11.34
296.908	16.04
297.375	14.84
297.842	15.24
298.309	15.34
298.776	12.14
299.243	20.34
299.71	10.14
300.177	23.04
300.644	19.64
301.111	19.94
301.578	27.94
302.045	15.14
302.512	21.44
302.979	30.14
303.446	25.64
303.913	15.84
304.379	18.74
304.846	23.14
305.313	27.04
305.78	20.54
306.246	27.64
306.713	29.44
307.18	24.14
307.646	26.64
308.113	25.74
308.579	25.44
309.046	27.64
309.512	28.44
309.979	17.54
310.445	24.24
310.912	30.04
311.378	32.14
311.845	26.54
312.311	28.84
312.777	28.64
313.244	31.84
313.71	37.94
314.176	28.04
314.642	32.94
315.109	30.64
315.575	29.64
316.041	34.14
316.507	35.64
316.973	37.44
317.439	28.94
317.905	39.64
318.371	32.04
318.837	31.44
319.303	28.34
319.769	34.54
320.235	32.54
320.701	34.34
321.167	35.54
321.633	32.34
322.099	34.94
322.564	40.04
323.03	39.34
323.496	34.84
323.962	32.34
324.427	36.34
324.893	37.64
325.359	32.44
325.824	29.14
326.29	35.64
326.755	41.64
327.221	41.34
327.686	41.74
328.152	47.14
328.617	40.94
329.083	48.24
329.548	48.24
330.014	44.14
330.479	37.14
330.944	42.84
331.41	35.54
331.875	38.84
332.34	40.34
332.805	35.74
333.271	52.44
333.736	43.44
334.201	53.34
334.666	45.34
335.131	51.94
335.596	50.64
336.061	48.44
336.526	44.04
336.991	38.74
337.456	49.74
337.921	49.34
338.386	40.34
338.851	42.14
339.316	46.04
339.781	44.24
340.246	48.94
340.711	41.94
341.175	50.94
341.64	46.84
342.105	52.64
342.569	54.44
343.034	57.34
343.499	49.84
343.963	53.04
344.428	59.74
344.893	56.94
345.357	52.54
345.822	52.54
346.286	63.44
346.751	69.54
347.215	60.04
347.679	65.64
348.144	86.64
348.608	77.84
349.073	69.34
349.537	75.24
350.001	77.64
350.465	79.34
350.93	70.94
351.394	80.54
351.858	65.94
352.322	80.64
352.786	79.44
353.25	91.94
353.715	102.64
354.179	93.74
354.643	110.14
355.107	118.34
355.571	100.84
356.035	94.44
356.498	104.74
356.962	110.94
357.426	119.54
357.89	101.74
358.354	89.24
358.818	72.84
359.281	69.44
359.745	67.84
360.209	67.94
360.673	70.14
361.136	72.94
361.6	78.24
362.064	79.94
362.527	72.34
362.991	80.84
363.454	75.64
363.918	76.44
364.381	68.74
364.845	71.64
365.308	80.34
365.772	80.64
366.235	81.94
366.698	72.94
367.162	82.34
367.625	82.74
368.088	76.54
368.552	77.44
369.015	83.24
369.478	84.24
369.941	88.14
370.404	83.24
370.867	89.54
371.331	103.84
371.794	105.34
372.257	98.54
372.72	104.04
373.183	101.94
373.646	94.24
374.109	97.24
374.572	99.64
375.035	101.84
375.497	97.34
375.96	96.24
376.423	88.84
376.886	103.14
377.349	99.14
377.811	93.84
378.274	97.84
378.737	94.24
379.199	100.34
379.662	98.44
380.125	107.84
380.587	108.64
381.05	113.34
381.512	116.44
381.975	122.14
382.437	118.24
382.9	112.34
383.362	119.64
383.825	122.44
384.287	127.84
384.75	128.14
385.212	121.84
385.674	126.14
386.136	120.34
386.599	110.04
387.061	111.84
387.523	118.24
387.985	114.74
388.447	136.84
388.91	132.24
389.372	141.14
389.834	134.84
390.296	127.24
390.758	139.74
391.22	157.64
391.682	185.74
392.144	265.94
392.606	207.84
393.068	149.64
393.529	153.04
393.991	142.14
394.453	134.64
394.915	133.44
395.377	172.74
395.838	195.14
396.3	141.34
396.762	124.84
397.224	119.04
397.685	114.64
398.147	116.24
398.608	114.04
399.07	115.24
399.531	111.64
399.993	132.64
400.454	139.14
400.916	122.74
401.377	130.64
401.839	134.54
402.3	135.94
402.762	141.84
403.223	163.54
403.684	147.74
404.145	142.84
404.607	147.04
405.068	153.44
405.529	157.64
405.99	170.24
406.451	153.94
406.913	150.74
407.374	142.04
407.835	140.94
408.296	146.24
408.757	158.54
409.218	169.94
409.679	161.64
410.14	159.04
410.601	158.14
411.062	160.34
411.522	171.24
411.983	169.54
412.444	153.14
412.905	161.14
413.366	162.94
413.826	165.94
414.287	193.74
414.748	236.94
415.208	221.24
415.669	192.34
416.13	188.14
416.59	177.54
417.051	195.44
417.511	196.34
417.972	203.64
418.432	216.04
418.893	266.04
419.353	224.34
419.814	178.24
420.274	164.04
420.734	164.64
421.195	178.14
421.655	172.84
422.115	160.74
422.576	171.34
423.036	174.24
423.496	188.24
423.956	189.94
424.416	202.04
424.876	239.74
425.336	232.34
425.797	231.54
426.257	229.44
426.717	211.84
427.177	208.04
427.637	199.94
428.097	210.74
428.556	216.64
429.016	233.34
429.476	228.24
429.936	239.04
430.396	241.44
430.856	254.94
431.315	282.04
431.775	305.64
432.235	340.74
432.694	308.04
433.154	317.54
433.614	331.84
434.073	291.54
434.533	261.34
434.993	240.64
435.452	255.44
435.912	260.14
436.371	260.14
436.83	249.24
437.29	238.04
437.749	219.44
438.209	218.54
438.668	235.84
439.127	253.64
439.587	233.74
440.046	224.94
440.505	227.74
440.964	248.04
441.424	279.34
441.883	270.74
442.342	234.34
442.801	203.14
443.26	194.14
443.719	195.84
444.178	194.44
444.637	190.74
445.096	194.94
445.555	199.44
446.014	200.34
446.473	199.74
446.932	197.04
447.391	197.24
447.849	209.74
448.308	199.34
448.767	195.34
449.226	208.94
449.685	206.14
450.143	225.44
450.602	213.74
451.061	199.74
451.519	203.74
451.978	207.54
452.436	214.04
452.895	212.14
453.353	228.84
453.812	219.54
454.27	213.84
454.729	212.24
455.187	215.94
455.646	214.84
456.104	216.74
456.562	230.64
457.021	234.24
457.479	231.64
457.937	234.14
458.395	236.44
458.854	215.94
459.312	219.14
459.77	228.24
460.228	224.34
460.686	211.04
461.144	220.84
461.602	217.94
462.06	214.64
462.518	225.24
462.976	227.84
463.434	230.84
463.892	233.64
464.35	237.94
464.808	263.84
465.266	236.84
465.724	241.74
466.181	242.94
466.639	243.34
467.097	258.64
467.555	263.64
468.012	267.84
468.47	275.34
468.928	302.64
469.385	298.74
469.843	305.44
470.3	305.94
470.758	323.84
471.215	334.14
471.673	357.04
472.13	353.54
472.588	364.54
473.045	324.84
473.503	335.64
473.96	348.34
474.417	356.24
474.875	386.84
475.332	420.54
475.789	414.04
476.246	409.74
476.704	431.54
477.161	452.34
477.618	465.84
478.075	496.94
478.532	555.24
478.989	613.04
479.446	704.84
479.903	687.84
480.36	722.24
480.817	770.64
481.274	866.94
481.731	968.34
482.188	1053.74
482.645	1174.64
483.102	1268.34
483.558	1392.74
484.015	1443.44
484.472	1414.14
484.929	1370.54
485.385	1333.54
485.842	1310.24
486.299	1230.94
486.755	1154.34
487.212	978.04
487.668	834.14
488.125	764.14
488.582	710.54
489.038	673.34
489.494	644.64
489.951	613.04
490.407	603.14
490.864	582.34
491.32	576.54
491.776	570.84
492.233	569.44
492.689	538.94
493.145	537.04
493.602	533.94
494.058	548.74
494.514	551.94
494.97	563.14
495.426	578.84
495.882	557.84
496.338	552.94
496.794	555.44
497.251	550.04
497.707	570.84
498.163	571.64
498.618	579.64
499.074	580.34
499.53	599.44
499.986	598.14
500.442	574.74
500.898	558.84
501.354	556.24
501.809	565.44
502.265	581.44
502.721	585.94
503.177	601.04
503.632	587.94
504.088	605.34
504.543	629.94
504.999	630.24
505.455	585.84
505.91	566.34
506.366	560.04
506.821	554.34
507.277	558.44
507.732	562.14
508.187	555.24
508.643	560.64
509.098	561.24
509.553	580.94
510.009	586.14
510.464	590.24
510.919	608.34
511.375	612.94
511.83	630.14
512.285	645.74
512.74	672.84
513.195	690.14
513.65	688.44
514.105	698.64
514.56	691.84
515.015	702.34
515.47	726.24
515.925	706.54
516.38	706.94
516.835	715.24
517.29	701.64
517.745	695.04
518.2	683.44
518.655	671.54
519.109	663.34
519.564	652.84
520.019	655.74
520.474	647.14
520.928	640.64
521.383	638.54
521.838	631.54
522.292	631.54
522.747	635.44
523.201	626.94
523.656	607.04
524.11	614.74
524.565	611.44
525.019	615.74
525.474	614.94
525.928	622.54
526.382	616.54
526.837	616.24
527.291	615.74
527.745	622.54
528.2	623.34
528.654	613.64
529.108	602.34
529.562	611.24
530.016	604.54
530.47	612.64
530.925	607.84
531.379	613.24
531.833	619.04
532.287	623.14
532.741	619.34
533.195	622.44
533.649	635.54
534.103	636.54
534.556	630.94
535.01	627.44
535.464	623.54
535.918	631.14
536.372	633.64
536.826	629.24
537.279	612.24
537.733	630.34
538.187	634.14
538.64	630.14
539.094	634.44
539.548	638.64
540.001	636.24
540.455	635.24
540.908	641.64
541.362	645.54
541.815	653.94
542.269	665.74
542.722	658.54
543.175	672.74
543.629	669.24
544.082	686.54
544.536	689.44
544.989	686.24
545.442	702.04
545.895	691.04
546.349	691.44
546.802	692.64
547.255	689.54
547.708	703.94
548.161	702.24
548.614	720.84
549.067	717.14
549.52	722.14
549.973	713.44
550.426	707.54
550.879	698.44
551.332	693.14
551.785	699.64
552.238	708.64
552.691	720.74
553.144	722.84
553.596	740.54
554.049	746.54
554.502	787.24
554.955	794.34
555.407	787.64
555.86	783.24
556.313	773.34
556.765	772.54
557.218	768.34
557.67	772.34
558.123	763.84
558.576	763.64
559.028	769.34
559.48	768.74
559.933	752.94
560.385	725.44
560.838	698.74
561.29	673.14
561.742	675.34
562.195	653.94
562.647	658.14
563.099	672.44
563.551	661.84
564.004	671.64
564.456	670.34
564.908	658.54
565.36	638.14
565.812	635.14
566.264	621.24
566.716	630.04
567.168	611.84
567.62	625.84
568.072	610.14
568.524	597.24
568.976	589.94
569.428	574.94
569.88	580.74
570.332	576.64
570.784	574.94
571.235	581.44
571.687	599.84
572.139	604.04
572.59	617.44
573.042	614.84
573.494	612.74
573.945	613.94
574.397	585.84
574.849	594.94
575.3	585.84
575.752	587.04
576.203	578.44
576.655	588.54
577.106	576.04
577.557	563.24
578.009	562.64
578.46	564.14
578.912	571.84
579.363	561.84
579.814	576.54
580.265	559.74
580.717	573.64
581.168	569.84
581.619	583.24
582.07	575.74
582.521	571.04
582.972	569.34
583.423	570.94
583.875	571.14
584.326	594.34
584.777	632.24
585.227	702.84
585.678	790.44
586.129	870.94
586.58	932.54
587.031	1015.84
587.482	1176.54
587.933	1333.94
588.384	1149.14
588.834	846.04
589.285	685.24
589.736	661.24
590.186	652.84
590.637	645.94
591.088	630.84
591.538	633.44
591.989	628.94
592.439	616.14
592.89	609.54
593.34	610.94
593.791	600.34
594.241	589.14
594.692	600.04
595.142	596.44
595.593	586.14
596.043	587.94
596.493	600.64
596.943	602.44
597.394	603.44
597.844	608.34
598.294	611.84
598.744	636.14
599.195	652.04
599.645	689.04
600.095	716.24
600.545	764.94
600.995	799.04
601.445	850.54
601.895	915.34
602.345	955.94
602.795	931.64
603.245	892.74
603.695	850.24
604.145	799.54
604.594	767.44
605.044	712.34
605.494	668.14
605.944	622.44
606.393	621.34
606.843	611.14
607.293	617.24
607.743	612.44
608.192	627.14
608.642	636.24
609.091	639.74
609.541	646.84
609.99	642.74
610.44	634.74
610.889	601.64
611.339	583.74
611.788	574.94
612.238	587.74
612.687	600.54
613.136	608.54
613.586	616.74
614.035	623.34
614.484	637.44
614.933	633.04
615.383	625.14
615.832	614.74
616.281	596.74
616.73	569.14
617.179	562.94
617.628	539.74
618.077	531.84
618.526	516.54
618.975	508.14
619.424	509.14
619.873	508.54
620.322	505.54
620.771	497.14
621.22	500.44
621.669	489.64
622.118	482.34
622.567	475.64
623.015	467.64
623.464	469.64
623.913	474.54
624.361	460.84
624.81	450.14
625.259	457.34
625.707	459.24
626.156	456.64
626.604	471.34
627.053	467.14
627.501	460.64
627.95	467.74
628.398	472.74
628.847	464.54
629.295	467.54
629.744	472.54
630.192	472.24
630.64	475.24
631.089	465.54
631.537	475.94
631.985	478.54
632.433	484.44
632.881	491.34
633.33	536.94
633.778	512.84
634.226	459.34
634.674	471.94
635.122	472.84
635.57	492.74
636.018	503.04
636.466	478.44
636.914	451.84
637.362	473.64
637.81	479.44
638.258	479.54
638.705	475.94
639.153	497.44
639.601	496.84
640.049	521.04
640.497	553.14
640.944	576.54
641.392	528.24
641.84	502.14
642.287	478.04
642.735	455.94
643.182	472.04
643.63	471.04
644.078	472.14
644.525	482.24
644.973	483.14
645.42	485.14
645.867	500.84
646.315	520.44
646.762	534.74
647.21	558.44
647.657	579.44
648.104	609.34
648.551	629.84
648.999	683.54
649.446	751.24
649.893	808.44
650.34	939.84
650.787	1120.54
651.234	1383.74
651.682	1793.74
652.129	2462.34
652.576	3536.24
653.023	5256.04
653.47	7274.14
653.917	9205.54
654.363	10830.94
654.81	12187.74
655.257	11591.34
655.704	7487.34
656.151	4392.74
656.598	2847.24
657.044	2005.14
657.491	1544.74
657.938	1225.14
658.385	1019.64
658.831	886.64
659.278	775.24
659.724	691.34
660.171	648.44
660.618	591.44
661.064	558.64
661.511	538.44
661.957	520.44
662.404	518.04
662.85	527.54
663.296	498.84
663.743	453.14
664.189	436.94
664.635	434.44
665.082	432.44
665.528	426.14
665.974	416.14
666.42	415.04
666.867	408.54
667.313	393.14
667.759	382.94
668.205	394.14
668.651	391.54
669.097	386.34
669.543	411.04
669.989	380.14
670.435	359.54
670.881	356.84
671.327	360.44
671.773	382.64
672.219	392.04
672.665	433.24
673.11	467.14
673.556	494.94
674.002	546.64
674.448	532.14
674.893	438.74
675.339	391.54
675.785	351.14
676.23	334.74
676.676	319.44
677.122	307.64
677.567	291.04
678.013	295.14
678.458	282.84
678.904	286.54
679.349	275.14
679.794	280.14
680.24	280.84
680.685	278.44
681.131	279.64
681.576	284.54
682.021	290.64
682.466	277.84
682.912	278.14
683.357	281.04
683.802	301.04
684.247	318.64
684.692	352.84
685.137	391.54
685.583	433.94
686.028	456.74
686.473	417.44
686.918	348.84
687.363	328.24
687.807	313.74
688.252	288.34
688.697	282.44
689.142	270.14
689.587	263.94
690.032	255.74
690.477	270.74
690.921	277.14
691.366	296.84
691.811	315.74
692.255	341.44
692.7	366.94
693.145	390.64
693.589	538.34
694.034	873.54
694.478	1219.24
694.923	1407.34
695.367	1866.54
695.812	967.74
696.256	401.64
696.701	291.14
697.145	273.74
697.59	262.94
698.034	259.94
698.478	260.44
698.922	259.44
699.367	262.54
699.811	274.14
700.255	275.34
700.699	303.14
701.143	330.04
701.588	378.74
702.032	410.44
702.476	414.64
702.92	385.04
703.364	381.34
703.808	480.74
704.252	799.44
704.696	1141.14
705.14	1347.64
705.584	1756.34
706.027	862.44
706.471	423.04
706.915	317.14
707.359	279.14
707.803	250.54
708.246	244.44
708.69	252.04
709.134	247.84
709.577	245.34
710.021	255.64
710.465	237.14
710.908	233.94
711.352	234.84
711.795	243.24
712.239	277.14
712.682	303.24
713.126	335.84
713.569	376.94
714.012	297.44
714.456	251.74
714.899	233.14
715.342	217.44
715.786	214.34
716.229	204.64
716.672	209.24
717.115	197.94
717.558	198.04
718.002	197.44
718.445	207.74
718.888	234.54
719.331	239.04
719.774	245.04
720.217	236.14
720.66	228.64
721.103	211.14
721.546	201.94
721.989	200.74
722.432	179.04
722.874	185.94
723.317	180.54
723.76	187.84
724.203	215.34
724.645	247.94
725.088	352.24
725.531	446.24
725.974	519.04
726.416	445.24
726.859	246.24
727.301	190.64
727.744	186.24
728.187	187.74
728.629	190.64
729.071	185.84
729.514	209.44
729.956	210.74
730.399	220.54
730.841	230.04
731.283	222.94
731.726	212.54
732.168	200.14
732.61	219.84
733.053	219.54
733.495	241.64
733.937	279.74
734.379	310.94
734.821	340.04
735.263	414.94
735.705	631.64
736.148	1217.14
736.59	2022.94
737.032	2495.64
737.474	2036.04
737.916	646.84
738.357	341.74
738.799	254.04
739.241	232.74
739.683	224.84
740.125	229.14
740.567	233.34
741.008	256.14
741.45	251.94
741.892	256.64
742.334	281.94
742.775	289.44
743.217	273.14
743.658	215.24
744.1	198.84
744.542	203.64
744.983	252.84
745.425	272.54
745.866	277.34
746.307	227.94
746.749	217.84
747.19	244.74
747.632	348.14
748.073	655.54
748.514	1424.34
748.956	2254.04
749.397	2851.64
749.838	2375.14
750.279	2442.44
750.72	1215.84
751.162	434.44
751.603	254.64
752.044	207.74
752.485	174.24
752.926	164.24
753.367	153.24
753.808	152.54
754.249	144.84
754.69	142.34
755.131	135.94
755.572	148.74
756.013	139.34
756.453	138.64
756.894	155.34
757.335	150.54
757.776	152.74
758.216	154.04
758.657	156.34
759.098	156.64
759.538	176.14
759.979	209.94
760.42	287.64
760.86	538.94
761.301	1383.04
761.741	3458.74
762.182	5359.14
762.622	3783.14
763.063	1066.44
763.503	433.94
763.943	273.14
764.384	272.04
764.824	329.44
765.264	374.74
765.705	251.74
766.145	166.54
766.585	147.34
767.025	145.04
767.465	145.04
767.906	192.04
768.346	261.34
768.786	280.54
769.226	208.24
769.666	245.54
770.106	456.84
770.546	1190.14
770.986	2138.44
771.426	1959.94
771.866	639.34
772.306	260.54
772.745	171.24
773.185	136.94
773.625	133.94
774.065	133.64
774.505	156.64
774.944	233.14
775.384	550.14
775.824	1023.94
776.263	1022.24
776.703	428.14
777.142	180.24
777.582	126.94
778.021	103.64
778.461	112.94
778.9	106.34
779.34	103.34
779.779	95.94
780.219	88.94
780.658	87.44
781.097	87.84
781.537	90.54
781.976	82.94
782.415	88.54
782.855	81.94
783.294	81.44
783.733	85.74
784.172	87.24
784.611	88.14
785.05	83.74
785.489	88.14
785.928	91.54
786.367	101.54
786.806	90.74
787.245	102.14
787.684	108.44
788.123	111.14
788.562	100.34
789.001	91.94
789.44	92.74
789.879	93.04
790.317	94.74
790.756	101.64
791.195	99.74
791.634	116.54
792.072	160.34
792.511	278.84
792.95	771.14
793.388	1726.64
793.827	1628.44
794.265	545.74
794.704	221.24
795.142	141.14
795.581	130.34
796.019	107.54
796.458	94.64
796.896	92.04
797.334	105.94
797.773	122.34
798.211	163.94
798.649	332.74
799.087	800.14
799.526	1265.14
799.964	1597.94
800.402	1665.14
800.84	610.74
801.278	234.94
801.716	147.94
802.154	117.04
802.592	117.44
803.03	103.24
803.468	102.34
803.906	107.54
804.344	115.74
804.782	111.84
805.22	100.64
805.658	93.14
806.096	111.94
806.533	125.44
806.971	135.04
807.409	170.94
807.847	244.84
808.284	503.44
808.722	1444.84
809.16	2670.94
809.597	2456.14
810.035	4367.34
810.472	4900.44
810.91	1733.94
811.347	644.14
811.785	322.64
812.222	202.34
812.66	156.74
813.097	134.24
813.535	113.64
813.972	104.44
814.409	97.94
814.846	85.24
815.284	83.24
815.721	80.44
816.158	84.84
816.595	93.14
817.032	140.74
817.47	170.94
817.907	144.64
818.344	123.04
818.781	91.74
819.218	76.74
819.655	98.74
820.092	148.74
820.529	181.04
820.966	144.04
821.403	104.34
821.839	83.14
822.276	77.24
822.713	97.64
823.15	113.94
823.587	97.54
824.023	113.54
824.46	221.54
824.897	694.84
825.333	1113.24
825.77	473.54
826.206	187.94
826.643	116.94
827.08	77.14
827.516	66.64
827.953	59.54
828.389	67.64
828.825	54.94
829.262	46.64
829.698	45.84
830.135	50.54
830.571	42.54
831.007	50.04
831.443	50.14
831.88	49.14
832.316	53.54
832.752	51.54
833.188	50.84
833.624	49.44
834.06	52.14
834.497	52.54
834.933	58.24
835.369	56.34
835.805	50.84
836.241	59.44
836.677	57.14
837.112	76.24
837.548	80.14
837.984	111.14
838.42	157.44
838.856	368.84
839.292	1202.24
839.727	1918.74
840.163	877.44
840.599	715.14
841.034	1641.34
841.47	1791.14
841.906	641.04
842.341	263.24
842.777	190.44
843.212	261.64
843.648	261.14
844.083	123.74
844.519	77.84
844.954	63.04
845.39	49.54
845.825	50.34
846.261	41.04
846.696	44.34
847.131	44.64
847.566	46.74
848.002	39.74
848.437	41.64
848.872	45.84
849.307	46.84
849.742	60.44
850.177	135.84
850.613	431.74
851.048	721.24
851.483	310.24
851.918	120.64
852.353	64.04
852.788	47.44
853.223	50.44
853.657	39.44
854.092	41.14
854.527	31.14
854.962	30.74
855.397	32.44
855.832	34.34
856.266	35.24
856.701	29.84
857.136	23.74
857.57	33.24
858.005	36.04
858.44	48.84
858.874	32.84
859.309	44.34
859.743	28.24
860.178	33.54
860.612	30.64
861.047	39.84
861.481	51.24
861.915	56.54
862.35	42.14
862.784	21.64
863.218	32.64
863.653	23.64
864.087	39.74
864.521	46.64
864.955	57.04
865.39	121.84
865.824	145.94
866.258	94.14
866.692	131.84
867.126	143.64
867.56	92.74
867.994	43.04
868.428	23.94
868.862	33.44
869.296	51.04
869.73	46.44
870.164	44.94
870.598	40.64
871.031	26.34
871.465	27.54
871.899	30.04
872.333	21.74
872.766	22.94
873.2	15.24
873.634	14.24
874.067	18.34
874.501	22.94
874.935	26.14
875.368	28.84
875.802	22.04
876.235	22.04
876.669	18.94
877.102	16.14
877.535	18.44
877.969	17.14
878.402	24.14
878.836	9.14
879.269	16.94
879.702	23.54
880.135	23.44
880.569	20.14
881.002	22.04
881.435	17.54
881.868	11.94
882.301	16.14
882.734	14.04
883.167	11.44
883.601	16.04
884.034	20.84
884.467	11.54
884.899	16.24
885.332	9.04
885.765	11.54
886.198	11.14
886.631	10.44
887.064	17.34
887.497	13.24
887.929	22.14
888.362	11.74
888.795	9.14
889.228	13.44
889.66	19.04
890.093	7.34
890.526	13.14
890.958	9.74
891.391	12.14
891.823	21.64
892.256	13.44
892.688	13.34
893.121	11.94
893.553	13.34
893.985	14.04
894.418	16.44
894.85	5.34
895.282	6.94
895.715	9.84
896.147	16.74
896.579	14.44
897.011	10.24
897.444	14.44
897.876	6.84
898.308	12.44
898.74	6.64
899.172	10.94
899.604	14.74
900.036	14.74
900.468	8.14
900.9	10.94
901.332	12.34
901.764	8.14
902.196	16.14
902.628	15.44
903.06	12.84
903.491	20.14
903.923	16.24
904.355	16.84
904.787	19.24
905.218	18.74
905.65	18.34
906.082	13.14
906.513	5.54
906.945	17.24
907.376	16.04
907.808	15.54
908.239	15.04
908.671	17.54
909.102	20.54
909.534	23.54
909.965	39.54
910.397	72.64
910.828	251.54
911.259	390.04
911.691	179.14
912.122	85.24
912.553	45.94
912.984	29.94
913.415	25.44
913.847	21.34
914.278	9.94
914.709	10.54
915.14	10.34
915.571	12.14
916.002	5.54
916.433	13.34
916.864	10.64
917.295	11.64
917.726	15.74
918.157	9.04
918.587	23.64
919.018	24.24
919.449	9.94
919.88	13.64
920.311	24.14
920.741	39.24
921.172	133.54
921.603	121.94
922.033	51.84
922.464	39.24
922.895	16.24
923.325	16.14
923.756	14.64
924.186	12.84
924.617	21.74
925.047	34.04
925.478	48.44
925.908	36.04
926.338	22.64
926.769	16.44
927.199	18.14
927.629	1.54
928.06	18.14
928.49	3.34
928.92	5.44
929.35	12.74
929.78	12.54
930.21	12.24
930.641	7.44
931.071	7.84
931.501	1.04
931.931	2.54
932.361	6.54
932.791	-0.56
933.221	6.44
933.651	1.74
934.08	16.74
934.51	20.64
934.94	5.44
935.37	6.04
935.8	11.54
936.229	6.84
936.659	9.94
937.089	3.44
937.519	11.44
937.948	19.64
938.378	10.04
938.807	7.74
939.237	2.44
939.666	9.84
940.096	-6.06
940.525	-4.96
940.955	2.04
941.384	1.54
941.814	-7.36
942.243	-3.86
942.672	2.04
943.102	1.04
943.531	2.64
943.96	5.84
944.39	7.04
944.819	-2.46
945.248	2.94
945.677	-0.76
946.106	6.74
946.535	2.04
946.964	-7.16
947.393	4.34
947.822	-0.26
948.251	-4.76
948.68	-2.76
949.109	3.44
949.538	4.04
949.967	-0.76
950.396	1.24
950.825	3.54
951.254	1.04
951.682	-6.36
952.111	3.64
952.54	6.34
952.969	-1.26
953.397	-3.66
953.826	-4.76
954.254	-0.56
954.683	-2.56
955.112	-2.86
955.54	-5.46
955.969	6.44
956.397	-2.26
956.826	-4.36
957.254	0.14
957.682	-0.56
958.111	0.54
958.539	-1.36
958.967	0.04
959.396	-0.46
959.824	1.74
960.252	-1.46
960.68	-3.36
961.109	-4.26
961.537	-1.26
961.965	1.54
962.393	-0.66
962.821	-3.26
963.249	-1.16
963.677	6.74
964.105	4.24
964.533	34.44
964.961	36.24
965.389	14.44
965.817	5.74
966.245	0.44
966.672	3.14
967.1	-10.66
967.528	-1.56
967.956	-1.76
968.383	-1.56
968.811	-0.76
969.239	-3.76
969.666	-0.66
970.094	3.24
970.522	-4.36
970.949	5.64
971.377	-5.46
971.804	1.54
972.232	0.84
972.659	5.64
973.087	-2.26
973.514	-0.96
973.941	-3.76
974.369	0.94
974.796	-1.76
975.223	-2.76
975.651	-3.96
976.078	1.94
976.505	-1.26
976.932	-0.96
977.359	12.84
977.786	10.14
978.214	-3.36
978.641	-5.96
979.068	-1.96
979.495	-1.96
979.922	-5.06
980.349	3.14
980.776	0.04
981.202	-1.36
981.629	0.14
982.056	1.94
982.483	-9.16
982.91	0.14
983.337	-7.96
983.763	3.14
984.19	-5.46
984.617	-6.86
985.043	-16.56
985.47	-2.36
985.897	-1.16
986.323	-6.66
986.75	-2.16
987.176	1.24
987.603	-4.76
988.029	-2.16
988.456	-1.36
988.882	3.84
989.308	-1.46
989.735	-4.06
990.161	2.14
990.587	-5.16
991.014	0.24
991.44	8.84
991.866	-1.66
992.292	-4.56
992.719	4.34
993.145	6.34
993.571	-9.36
993.997	-1.76
994.423	-1.56
994.849	-6.56
995.275	2.34
995.701	-1.56
996.127	-5.86
996.553	0.74
996.979	-9.56
997.405	2.94
997.83	-8.86
998.256	-6.06
998.682	-3.16
999.108	-5.36
999.534	0.44
999.959	2.24
1000.385	-1.16
1000.811	-1.56
1001.236	-6.26
1001.662	-6.46
1002.087	-6.06
1002.513	-3.26
1002.938	2.74
1003.364	-3.06
1003.789	-1.86
1004.215	-2.86
1004.64	-1.86
1005.066	0.94
1005.491	-1.56
1005.916	1.84
1006.342	-4.96
1006.767	-16.36
1007.192	-1.56
1007.617	-2.06
1008.042	0.24
1008.468	-4.96
1008.893	0.34
1009.318	-4.96
1009.743	-4.76
1010.168	-1.46
1010.593	2.04
1011.018	-8.36
1011.443	-6.26
1011.868	-7.26
1012.293	-1.96
1012.718	-9.16
1013.143	0.54
1013.567	7.54
1013.992	2.34
1014.417	-12.06
1014.842	1.04
1015.267	-5.46
1015.691	-4.56
1016.116	1.54
1016.541	2.94
1016.965	0.84
1017.39	1.34
1017.814	-6.16
1018.239	-2.86
1018.663	-9.46
1019.088	-8.96
1019.512	-2.06
1019.937	-1.36
1020.361	-1.86
1020.785	-9.26
1021.21	-4.96
1021.634	-10.86
1022.058	1.24
1022.483	0.04
1022.907	-0.76
1023.331	-2.76
1023.755	-4.06
1024.179	-4.26
1024.604	-3.56
1025.028	-5.66
1025.452	-2.96
1025.876	2.54
1026.3	0.64
1026.724	-13.46
1027.148	-5.86
1027.572	-2.06
1027.996	-3.46
1028.42	-4.46
1028.843	-3.06
1029.267	-6.46
1029.691	-4.06
1030.115	-8.56
1030.539	-9.46
1030.962	-4.86
1031.386	-11.26
1031.81	4.54
1032.233	-0.86
1032.657	-5.06
1033.08	-4.46
1033.504	-1.06
1033.927	-4.86
1034.351	3.44
1034.774	-5.46
1035.198	-0.06
1035.621	-6.56
1036.045	-10.46
1036.468	-0.96
1036.891	-16.36
1037.315	-8.16
1037.738	-11.06
1038.161	-1.96
1038.584	-11.26
1039.008	-6.26
1039.431	-6.86
1039.854	-2.96
1040.277	-5.96
1040.7	-13.66
1041.123	-0.86
1041.546	-6.66
1041.969	-2.86
1042.392	-3.86
1042.815	-6.16
1043.238	1.24
1043.661	-3.56
1044.084	-9.16
1044.507	-8.26
1044.93	-6.46
1045.352	-9.26
1045.775	-4.86
1046.198	-3.56
1046.621	-6.26
1047.043	-1.46
1047.466	4.54
1047.889	-7.16
1048.311	-8.76
1048.734	-2.96
1049.156	-4.26
1049.579	2.94
1050.001	-3.36
1050.424	-2.06
1050.846	-1.06
1051.269	-7.96
1051.691	-10.46
1052.113	-4.56
1052.536	-1.16
1052.958	1.34
1053.38	-6.86
1053.802	-12.26
1054.225	-0.26
1054.647	-7.36
1055.069	-8.26
1055.491	-0.86
1055.913	-14.16
1056.335	0.94
1056.757	-4.96
1057.179	-10.86
1057.601	-12.06
1058.023	-2.16
1058.445	-9.56
1058.867	-7.36
1059.289	-3.16
1059.711	-9.86
1060.133	-10.26
1060.555	-2.76
1060.976	-7.06
1061.398	-10.86
1061.82	-6.36
1062.241	-5.76
1062.663	-5.46
1063.085	-4.76
1063.506	-1.46
1063.928	-5.46
1064.35	1.44
1064.771	-12.26
1065.193	-6.16
1065.614	-7.96
1066.035	-2.46
1066.457	-7.56
1066.878	-6.16
1067.3	-9.56
1067.721	-8.16
1068.142	-9.16
1068.564	-5.76
1068.985	-2.86
1069.406	-9.86
1069.827	-4.16
1070.248	-0.16
1070.67	-1.66
1071.091	-10.96
1071.512	-5.06
1071.933	-4.96
1072.354	-8.46
1072.775	-6.86
1073.196	-1.66
1073.617	2.64
1074.038	-8.06
1074.459	-4.86
1074.88	-8.46
1075.3	2.84
1075.721	-7.66
1076.142	0.64
1076.563	-2.76
1076.983	-13.56
1077.404	-7.56
1077.825	-6.26
1078.246	-6.16
1078.666	-16.06
1079.087	-6.16
1079.507	-7.46
1079.928	-0.66
1080.348	-1.26
1080.769	-8.46
1081.189	-7.16
1081.61	0.54
1082.03	-6.96
1082.451	-1.26
1082.871	-2.86
1083.291	-8.36
1083.711	-7.26
1084.132	-4.46
1084.552	-0.36
1084.972	-3.26
1085.392	-12.96
1085.813	-14.46
1086.233	-9.26
1086.653	-3.76
1087.073	-2.26
1087.493	-10.56
1087.913	-2.26
1088.333	-5.36
1088.753	-3.16
1089.173	3.84
1089.593	-2.56
1090.013	1.44
1090.433	-2.16
1090.852	-5.76
1091.272	-5.56
1091.692	-2.46
1092.112	-5.16
1092.531	-11.96
1092.951	-10.86
1093.371	-9.26
1093.79	-4.76
1094.21	-1.26
1094.63	-5.56
1095.049	-6.16
1095.469	-5.36
1095.888	3.04
1096.308	3.14
1096.727	7.54
1097.146	-10.56
1097.566	3.54
1097.985	-6.36
1098.405	-0.06
1098.824	-6.66
1099.243	-2.66
1099.662	-9.66
1100.082	-3.06
1100.501	-2.76
1100.92	-9.46
1101.339	-5.76
1101.758	-1.96
