Data from 20171114-ORNL-Ar_H_NY_Subt18_08-03-32-035.txt Node
Date: Tue Nov 14 08:03:32 EST 2017
User: Ender
Spectrometer: HR+D1039
Trigger mode: 0
Integration Time (sec): 2.730000E-2
Scans to average: 10
Electric dark correction enabled: true
Nonlinearity correction enabled: false
Boxcar width: 0
XAxis mode: Wavelengths
Number of Pixels in Spectrum: 2048
>>>>>Begin Spectral Data<<<<<
187.836	-2.85
188.309	-2.85
188.782	-2.85
189.255	0.55
189.728	-3.55
190.201	4.35
190.674	8.25
191.147	5.85
191.619	-6.85
192.092	2.65
192.565	3.35
193.038	-0.65
193.511	2.15
193.984	-0.55
194.456	-1.85
194.929	-2.65
195.402	-6.65
195.874	-1.55
196.347	-4.75
196.82	-8.25
197.292	4.35
197.765	0.45
198.237	-5.95
198.71	2.45
199.182	-2.05
199.655	0.25
200.127	4.95
200.6	-2.75
201.072	-4.65
201.544	-6.25
202.017	-6.85
202.489	-2.25
202.961	-0.45
203.433	-2.05
203.906	-4.65
204.378	-6.35
204.85	-6.55
205.322	-8.95
205.794	-4.15
206.266	0.65
206.739	-4.05
207.211	7.45
207.683	-11.55
208.155	-4.85
208.627	-6.75
209.099	-1.95
209.57	-6.35
210.042	-1.35
210.514	-7.25
210.986	0.85
211.458	-8.15
211.93	-4.45
212.402	2.85
212.873	-7.45
213.345	-10.35
213.817	-10.75
214.288	-9.75
214.76	-12.85
215.232	-4.35
215.703	-4.55
216.175	-2.55
216.646	-10.55
217.118	-5.85
217.589	-5.05
218.061	-4.25
218.532	-2.65
219.004	-4.05
219.475	-1.55
219.946	-2.25
220.418	-2.65
220.889	1.15
221.36	-2.65
221.832	-3.75
222.303	-7.05
222.774	-3.35
223.245	-8.35
223.717	-8.75
224.188	-8.35
224.659	-10.55
225.13	-3.65
225.601	-5.15
226.072	0.65
226.543	-1.15
227.014	-0.85
227.485	0.15
227.956	-8.45
228.427	-2.15
228.898	0.15
229.369	-3.25
229.839	-10.75
230.31	-8.95
230.781	0.35
231.252	-3.15
231.722	-5.65
232.193	-8.75
232.664	-3.15
233.135	1.25
233.605	-10.45
234.076	-10.15
234.546	-5.25
235.017	-1.85
235.487	-0.25
235.958	-1.35
236.428	-9.05
236.899	-5.85
237.369	-4.35
237.84	-8.85
238.31	-1.45
238.78	-1.05
239.251	-11.05
239.721	-6.25
240.191	-3.75
240.662	-7.25
241.132	-1.95
241.602	-4.85
242.072	-0.95
242.542	-4.05
243.013	-2.55
243.483	-6.55
243.953	-4.15
244.423	-1.95
244.893	-3.65
245.363	-5.85
245.833	-7.75
246.303	-9.05
246.773	0.45
247.243	-3.85
247.712	1.45
248.182	-4.45
248.652	-1.65
249.122	-10.85
249.592	-3.85
250.061	-1.15
250.531	5.65
251.001	-4.05
251.471	1.35
251.94	-3.25
252.41	0.95
252.879	-9.85
253.349	-1.05
253.818	-3.15
254.288	-5.95
254.757	-7.95
255.227	-11.15
255.696	-2.55
256.166	-8.95
256.635	1.05
257.105	-0.45
257.574	-3.45
258.043	-7.45
258.513	-6.65
258.982	-5.35
259.451	-12.55
259.92	-2.85
260.389	-4.15
260.859	5.45
261.328	-5.05
261.797	-5.95
262.266	-2.35
262.735	2.55
263.204	-1.95
263.673	-10.05
264.142	0.95
264.611	-9.95
265.08	-11.85
265.549	-8.45
266.018	-6.35
266.487	-13.15
266.955	-7.75
267.424	-6.45
267.893	-6.15
268.362	-6.65
268.83	-4.55
269.299	1.35
269.768	-3.55
270.236	-3.45
270.705	-10.85
271.174	-11.55
271.642	-3.95
272.111	-7.95
272.579	-8.35
273.048	-0.15
273.516	-7.15
273.985	-9.65
274.453	-0.55
274.922	1.55
275.39	-1.65
275.858	-9.85
276.327	-5.75
276.795	-1.05
277.263	-5.65
277.731	-1.95
278.2	-5.95
278.668	-5.85
279.136	-5.15
279.604	-6.55
280.072	1.05
280.54	1.95
281.008	-0.05
281.477	-0.05
281.945	-1.25
282.413	2.15
282.881	-4.65
283.348	-10.55
283.816	-2.85
284.284	-3.75
284.752	1.75
285.22	-2.35
285.688	-3.75
286.156	0.55
286.623	4.75
287.091	-5.35
287.559	-5.55
288.026	0.05
288.494	-6.25
288.962	-11.25
289.429	-14.45
289.897	-2.75
290.364	-1.55
290.832	2.35
291.3	-1.15
291.767	-0.35
292.234	-0.05
292.702	-5.45
293.169	-4.85
293.637	6.15
294.104	1.55
294.571	-8.15
295.039	-7.65
295.506	-7.65
295.973	-9.75
296.44	-7.75
296.908	-6.75
297.375	-2.35
297.842	-2.35
298.309	-9.55
298.776	-7.95
299.243	-5.05
299.71	-5.45
300.177	-3.55
300.644	3.45
301.111	-4.85
301.578	0.85
302.045	-9.15
302.512	-6.35
302.979	4.15
303.446	-7.25
303.913	-2.55
304.379	-7.05
304.846	-0.65
305.313	-2.35
305.78	-5.25
306.246	-1.65
306.713	0.05
307.18	-4.05
307.646	0.25
308.113	-4.35
308.579	-2.45
309.046	-2.75
309.512	-3.65
309.979	-5.75
310.445	4.95
310.912	1.55
311.378	5.65
311.845	-0.45
312.311	3.95
312.777	-3.75
313.244	0.95
313.71	1.95
314.176	-3.55
314.642	-7.55
315.109	-8.75
315.575	2.65
316.041	1.95
316.507	-2.45
316.973	-1.75
317.439	-3.75
317.905	-6.35
318.371	-5.75
318.837	-1.35
319.303	0.25
319.769	-2.55
320.235	-3.85
320.701	-2.35
321.167	-1.35
321.633	3.95
322.099	-3.75
322.564	3.25
323.03	-0.45
323.496	-2.35
323.962	-0.35
324.427	-5.55
324.893	-0.45
325.359	-2.35
325.824	3.35
326.29	-5.85
326.755	-1.45
327.221	3.05
327.686	-3.55
328.152	2.35
328.617	-1.95
329.083	0.55
329.548	4.55
330.014	1.55
330.479	-3.55
330.944	-2.45
331.41	-0.75
331.875	5.95
332.34	-8.45
332.805	3.25
333.271	-0.95
333.736	-9.45
334.201	-4.95
334.666	-9.05
335.131	3.65
335.596	3.15
336.061	2.65
336.526	-9.55
336.991	-0.25
337.456	6.25
337.921	6.25
338.386	-1.85
338.851	-3.95
339.316	0.75
339.781	-3.65
340.246	1.05
340.711	-6.25
341.175	2.45
341.64	-4.45
342.105	-3.65
342.569	3.15
343.034	7.25
343.499	5.15
343.963	1.35
344.428	5.25
344.893	7.65
345.357	1.65
345.822	6.85
346.286	4.15
346.751	3.45
347.215	-5.45
347.679	1.05
348.144	6.35
348.608	4.85
349.073	-0.85
349.537	2.35
350.001	-2.35
350.465	5.05
350.93	-0.55
351.394	7.35
351.858	1.35
352.322	10.25
352.786	3.25
353.25	-0.35
353.715	5.65
354.179	4.65
354.643	9.45
355.107	0.15
355.571	7.25
356.035	2.05
356.498	-0.95
356.962	3.75
357.426	10.25
357.89	3.95
358.354	4.85
358.818	6.95
359.281	4.25
359.745	2.45
360.209	-0.75
360.673	1.35
361.136	1.65
361.6	5.75
362.064	6.05
362.527	2.85
362.991	8.85
363.454	4.15
363.918	-6.95
364.381	-1.55
364.845	1.95
365.308	3.15
365.772	10.05
366.235	10.55
366.698	-0.65
367.162	0.25
367.625	-1.25
368.088	0.65
368.552	3.15
369.015	-4.75
369.478	6.55
369.941	10.55
370.404	-0.15
370.867	5.75
371.331	5.05
371.794	6.15
372.257	0.55
372.72	9.75
373.183	9.25
373.646	1.45
374.109	2.65
374.572	5.85
375.035	2.25
375.497	-2.55
375.96	1.05
376.423	4.35
376.886	6.25
377.349	7.35
377.811	3.25
378.274	7.95
378.737	9.35
379.199	7.45
379.662	6.55
380.125	9.85
380.587	4.65
381.05	-3.85
381.512	-0.75
381.975	12.65
382.437	4.15
382.9	0.35
383.362	6.55
383.825	5.95
384.287	9.05
384.75	4.05
385.212	6.25
385.674	9.05
386.136	11.15
386.599	1.75
387.061	6.05
387.523	6.85
387.985	7.65
388.447	12.95
388.91	17.65
389.372	12.45
389.834	8.15
390.296	3.35
390.758	4.25
391.22	11.05
391.682	7.75
392.144	17.25
392.606	8.45
393.068	10.75
393.529	13.65
393.991	5.15
394.453	10.45
394.915	8.95
395.377	4.95
395.838	7.75
396.3	8.85
396.762	14.35
397.224	11.85
397.685	7.55
398.147	5.75
398.608	9.55
399.07	1.55
399.531	1.65
399.993	9.05
400.454	17.25
400.916	12.65
401.377	6.05
401.839	7.35
402.3	13.25
402.762	8.65
403.223	17.35
403.684	9.45
404.145	3.85
404.607	7.55
405.068	2.15
405.529	7.55
405.99	7.45
406.451	0.05
406.913	12.55
407.374	10.15
407.835	13.45
408.296	7.95
408.757	14.05
409.218	11.15
409.679	8.15
410.14	7.45
410.601	3.65
411.062	17.85
411.522	19.65
411.983	9.35
412.444	1.05
412.905	10.25
413.366	8.95
413.826	10.15
414.287	16.35
414.748	27.25
415.208	15.35
415.669	19.15
416.13	26.35
416.59	17.35
417.051	24.15
417.511	17.25
417.972	19.15
418.432	26.55
418.893	35.65
419.353	29.45
419.814	22.45
420.274	15.35
420.734	14.65
421.195	17.55
421.655	8.35
422.115	18.75
422.576	17.75
423.036	17.45
423.496	19.95
423.956	14.95
424.416	23.65
424.876	23.15
425.336	17.95
425.797	24.55
426.257	22.55
426.717	10.95
427.177	19.15
427.637	8.05
428.097	17.85
428.556	11.15
429.016	17.15
429.476	11.75
429.936	20.65
430.396	14.65
430.856	22.55
431.315	21.15
431.775	18.25
432.235	38.35
432.694	17.45
433.154	26.25
433.614	26.95
434.073	19.15
434.533	21.35
434.993	14.25
435.452	16.95
435.912	19.35
436.371	17.95
436.83	16.25
437.29	21.55
437.749	19.25
438.209	14.35
438.668	16.15
439.127	16.85
439.587	23.35
440.046	13.95
440.505	19.45
440.964	16.55
441.424	17.65
441.883	21.05
442.342	22.25
442.801	17.85
443.26	15.65
443.719	17.35
444.178	18.85
444.637	7.85
445.096	20.55
445.555	20.25
446.014	17.65
446.473	20.95
446.932	19.05
447.391	19.55
447.849	25.85
448.308	9.45
448.767	13.15
449.226	19.85
449.685	22.05
450.143	22.55
450.602	16.55
451.061	17.75
451.519	22.35
451.978	14.45
452.436	10.95
452.895	5.35
453.353	10.85
453.812	21.65
454.27	20.65
454.729	20.65
455.187	17.25
455.646	24.65
456.104	21.05
456.562	14.05
457.021	21.55
457.479	23.25
457.937	28.85
458.395	20.05
458.854	18.45
459.312	21.25
459.77	19.25
460.228	15.55
460.686	18.55
461.144	22.75
461.602	15.75
462.06	20.55
462.518	19.95
462.976	18.65
463.434	18.95
463.892	16.15
464.35	16.95
464.808	25.55
465.266	15.25
465.724	21.65
466.181	20.35
466.639	19.65
467.097	25.25
467.555	21.65
468.012	29.75
468.47	25.85
468.928	23.75
469.385	35.35
469.843	27.45
470.3	24.85
470.758	23.35
471.215	21.95
471.673	23.95
472.13	26.25
472.588	31.35
473.045	27.95
473.503	25.35
473.96	27.45
474.417	27.75
474.875	24.05
475.332	39.65
475.789	32.65
476.246	37.15
476.704	34.85
477.161	31.95
477.618	23.75
478.075	35.85
478.532	34.55
478.989	38.25
479.446	44.05
479.903	47.05
480.36	38.85
480.817	30.75
481.274	37.45
481.731	42.95
482.188	26.15
482.645	45.95
483.102	39.65
483.558	42.35
484.015	48.95
484.472	42.35
484.929	45.35
485.385	44.55
485.842	47.55
486.299	43.35
486.755	51.05
487.212	52.65
487.668	39.15
488.125	46.35
488.582	46.45
489.038	43.05
489.494	33.05
489.951	44.55
490.407	43.15
490.864	28.85
491.32	35.75
491.776	44.45
492.233	40.65
492.689	28.95
493.145	37.85
493.602	43.85
494.058	40.85
494.514	40.05
494.97	44.15
495.426	43.65
495.882	38.05
496.338	44.85
496.794	42.25
497.251	36.75
497.707	41.95
498.163	39.25
498.618	42.95
499.074	45.55
499.53	49.05
499.986	49.25
500.442	45.45
500.898	40.55
501.354	37.95
501.809	46.55
502.265	42.65
502.721	47.25
503.177	46.25
503.632	47.35
504.088	49.95
504.543	55.75
504.999	47.75
505.455	43.15
505.91	41.05
506.366	49.45
506.821	43.45
507.277	48.05
507.732	42.45
508.187	42.75
508.643	45.05
509.098	44.05
509.553	47.05
510.009	53.55
510.464	39.25
510.919	50.75
511.375	47.85
511.83	51.75
512.285	49.65
512.74	59.85
513.195	62.65
513.65	49.25
514.105	62.95
514.56	60.05
515.015	70.15
515.47	74.15
515.925	60.45
516.38	63.55
516.835	70.75
517.29	65.45
517.745	60.35
518.2	61.45
518.655	54.75
519.109	51.15
519.564	51.45
520.019	43.35
520.474	43.85
520.928	52.15
521.383	55.85
521.838	44.85
522.292	53.15
522.747	56.55
523.201	54.75
523.656	58.25
524.11	47.15
524.565	49.65
525.019	40.95
525.474	44.05
525.928	47.05
526.382	43.15
526.837	48.55
527.291	41.75
527.745	43.55
528.2	47.05
528.654	43.55
529.108	45.55
529.562	43.75
530.016	42.15
530.47	42.95
530.925	44.05
531.379	43.55
531.833	43.85
532.287	37.85
532.741	39.55
533.195	45.65
533.649	43.65
534.103	49.95
534.556	42.95
535.01	40.75
535.464	35.55
535.918	48.55
536.372	45.55
536.826	48.45
537.279	43.65
537.733	45.65
538.187	47.45
538.64	39.85
539.094	47.25
539.548	46.45
540.001	37.55
540.455	39.85
540.908	52.85
541.362	56.65
541.815	54.35
542.269	50.35
542.722	49.55
543.175	44.25
543.629	48.15
544.082	55.25
544.536	51.15
544.989	53.95
545.442	50.45
545.895	55.85
546.349	54.15
546.802	49.25
547.255	52.35
547.708	57.85
548.161	58.95
548.614	65.75
549.067	59.35
549.52	60.95
549.973	50.05
550.426	53.55
550.879	47.15
551.332	49.05
551.785	52.65
552.238	46.95
552.691	56.35
553.144	53.25
553.596	53.85
554.049	59.85
554.502	65.25
554.955	61.15
555.407	61.05
555.86	63.15
556.313	60.25
556.765	57.95
557.218	61.85
557.67	58.65
558.123	56.15
558.576	51.45
559.028	59.25
559.48	61.85
559.933	60.45
560.385	53.75
560.838	57.35
561.29	42.65
561.742	47.15
562.195	44.95
562.647	48.45
563.099	50.45
563.551	52.95
564.004	58.25
564.456	48.15
564.908	46.65
565.36	43.25
565.812	38.55
566.264	38.45
566.716	44.55
567.168	35.65
567.62	40.75
568.072	40.85
568.524	36.85
568.976	37.55
569.428	34.15
569.88	36.35
570.332	34.15
570.784	38.05
571.235	39.55
571.687	37.25
572.139	42.25
572.59	44.65
573.042	34.45
573.494	39.45
573.945	46.25
574.397	36.05
574.849	42.85
575.3	43.15
575.752	34.85
576.203	44.65
576.655	41.25
577.106	35.25
577.557	30.65
578.009	38.55
578.46	34.25
578.912	39.25
579.363	36.15
579.814	32.05
580.265	28.25
580.717	27.05
581.168	32.25
581.619	39.15
582.07	44.75
582.521	34.85
582.972	27.15
583.423	34.85
583.875	31.75
584.326	33.35
584.777	40.95
585.227	39.55
585.678	31.45
586.129	35.25
586.58	42.05
587.031	46.35
587.482	50.05
587.933	55.15
588.384	44.65
588.834	45.85
589.285	39.65
589.736	41.45
590.186	40.35
590.637	46.95
591.088	41.95
591.538	40.25
591.989	50.95
592.439	43.25
592.89	37.55
593.34	37.85
593.791	38.85
594.241	32.85
594.692	37.75
595.142	33.95
595.593	32.55
596.043	44.65
596.493	40.65
596.943	40.85
597.394	35.85
597.844	32.55
598.294	35.05
598.744	42.65
599.195	46.25
599.645	48.15
600.095	50.85
600.545	60.95
600.995	63.15
601.445	72.15
601.895	88.95
602.345	97.15
602.795	77.45
603.245	71.45
603.695	61.65
604.145	51.95
604.594	44.95
605.044	43.25
605.494	38.85
605.944	31.55
606.393	40.55
606.843	35.75
607.293	44.75
607.743	36.15
608.192	34.55
608.642	47.05
609.091	43.95
609.541	49.45
609.99	35.25
610.44	44.45
610.889	32.25
611.339	32.75
611.788	24.75
612.238	37.65
612.687	45.85
613.136	38.45
613.586	40.95
614.035	32.45
614.484	31.95
614.933	33.05
615.383	39.35
615.832	39.55
616.281	40.15
616.73	38.05
617.179	35.25
617.628	40.45
618.077	27.75
618.526	33.55
618.975	32.55
619.424	31.85
619.873	28.25
620.322	34.05
620.771	19.85
621.22	31.75
621.669	30.65
622.118	32.15
622.567	23.35
623.015	23.55
623.464	27.35
623.913	22.75
624.361	22.85
624.81	22.35
625.259	19.95
625.707	27.15
626.156	24.95
626.604	30.15
627.053	26.85
627.501	22.85
627.95	24.05
628.398	27.85
628.847	24.85
629.295	23.05
629.744	27.45
630.192	30.05
630.64	25.35
631.089	23.25
631.537	27.25
631.985	25.05
632.433	25.05
632.881	27.85
633.33	24.85
633.778	23.55
634.226	21.95
634.674	21.25
635.122	25.65
635.57	25.35
636.018	21.15
636.466	32.85
636.914	20.05
637.362	33.25
637.81	32.25
638.258	30.45
638.705	28.45
639.153	30.25
639.601	28.45
640.049	29.45
640.497	37.15
640.944	42.05
641.392	26.45
641.84	24.65
642.287	19.95
642.735	16.55
643.182	25.35
643.63	21.65
644.078	14.75
644.525	20.65
644.973	19.45
645.42	18.25
645.867	22.75
646.315	28.45
646.762	18.85
647.21	24.15
647.657	17.55
648.104	23.65
648.551	24.45
648.999	16.55
649.446	20.35
649.893	13.75
650.34	19.25
650.787	17.25
651.234	26.45
651.682	24.55
652.129	20.15
652.576	17.55
653.023	29.75
653.47	35.85
653.917	29.65
654.363	34.75
654.81	30.15
655.257	26.35
655.704	20.25
656.151	19.95
656.598	19.15
657.044	13.75
657.491	21.35
657.938	19.65
658.385	25.05
658.831	19.55
659.278	30.95
659.724	17.75
660.171	25.25
660.618	18.45
661.064	14.95
661.511	13.75
661.957	18.75
662.404	18.35
662.85	26.55
663.296	23.25
663.743	24.25
664.189	16.75
664.635	19.95
665.082	19.25
665.528	25.65
665.974	18.65
666.42	16.95
666.867	20.35
667.313	12.35
667.759	22.15
668.205	24.35
668.651	18.95
669.097	26.65
669.543	12.75
669.989	16.55
670.435	19.25
670.881	13.15
671.327	14.85
671.773	17.95
672.219	25.45
672.665	33.25
673.11	22.25
673.556	38.85
674.002	41.35
674.448	35.05
674.893	28.85
675.339	24.55
675.785	19.05
676.23	28.35
676.676	11.95
677.122	10.75
677.567	11.15
678.013	19.55
678.458	14.05
678.904	18.65
679.349	9.75
679.794	9.95
680.24	15.05
680.685	10.05
681.131	10.25
681.576	13.55
682.021	19.85
682.466	22.25
682.912	12.65
683.357	9.45
683.802	15.95
684.247	21.35
684.692	23.55
685.137	22.35
685.583	33.65
686.028	37.35
686.473	24.95
686.918	15.95
687.363	22.75
687.807	23.15
688.252	13.75
688.697	21.35
689.142	15.55
689.587	16.15
690.032	1.95
690.477	13.25
690.921	14.95
691.366	21.35
691.811	20.05
692.255	34.05
692.7	28.45
693.145	28.85
693.589	45.15
694.034	86.85
694.478	129.65
694.923	161.45
695.367	212.85
695.812	97.55
696.256	34.75
696.701	10.95
697.145	19.75
697.59	13.25
698.034	14.55
698.478	21.65
698.922	20.25
699.367	13.85
699.811	17.45
700.255	16.65
700.699	25.05
701.143	24.05
701.588	33.45
702.032	36.95
702.476	27.85
702.92	24.25
703.364	27.05
703.808	35.15
704.252	78.15
704.696	113.95
705.14	147.85
705.584	202.25
706.027	92.75
706.471	28.85
706.915	18.05
707.359	13.15
707.803	2.65
708.246	9.65
708.69	24.15
709.134	19.25
709.577	14.45
710.021	18.75
710.465	12.75
710.908	12.05
711.352	13.05
711.795	10.85
712.239	17.85
712.682	10.35
713.126	23.15
713.569	24.05
714.012	26.75
714.456	15.85
714.899	14.55
715.342	11.65
715.786	4.35
716.229	12.35
716.672	8.75
717.115	5.75
717.558	6.55
718.002	9.05
718.445	14.55
718.888	17.15
719.331	12.15
719.774	14.95
720.217	12.55
720.66	12.25
721.103	9.95
721.546	10.85
721.989	14.05
722.432	-5.55
722.874	6.55
723.317	4.45
723.76	7.75
724.203	4.55
724.645	18.05
725.088	25.85
725.531	33.75
725.974	50.65
726.416	35.85
726.859	18.15
727.301	7.85
727.744	10.05
728.187	8.65
728.629	10.25
729.071	5.25
729.514	18.75
729.956	14.25
730.399	15.15
730.841	13.95
731.283	9.55
731.726	8.95
732.168	2.25
732.61	10.95
733.053	13.65
733.495	8.85
733.937	17.55
734.379	24.85
734.821	21.35
735.263	31.45
735.705	58.65
736.148	120.75
736.59	216.95
737.032	273.25
737.474	219.05
737.916	52.65
738.357	27.35
738.799	12.15
739.241	12.55
739.683	5.95
740.125	18.35
740.567	6.05
741.008	23.35
741.45	17.95
741.892	15.35
742.334	25.05
742.775	12.75
743.217	19.45
743.658	9.05
744.1	10.85
744.542	2.15
744.983	12.55
745.425	8.25
745.866	19.75
746.307	17.45
746.749	15.05
747.19	21.55
747.632	30.55
748.073	54.55
748.514	160.65
748.956	256.35
749.397	306.25
749.838	264.65
750.279	282.05
750.72	121.55
751.162	37.95
751.603	14.25
752.044	4.45
752.485	1.65
752.926	10.05
753.367	8.95
753.808	17.05
754.249	5.55
754.69	7.85
755.131	7.95
755.572	2.55
756.013	-0.15
756.453	4.45
756.894	8.55
757.335	9.45
757.776	8.55
758.216	8.65
758.657	14.65
759.098	5.15
759.538	6.65
759.979	1.05
760.42	10.75
760.86	38.65
761.301	139.25
761.741	365.55
762.182	570.65
762.622	397.05
763.063	92.75
763.503	32.45
763.943	14.25
764.384	12.05
764.824	12.85
765.264	7.75
765.705	6.35
766.145	0.55
766.585	2.95
767.025	3.45
767.465	-0.65
767.906	3.05
768.346	12.65
768.786	2.05
769.226	3.65
769.666	26.45
770.106	41.45
770.546	129.85
770.986	249.65
771.426	222.15
771.866	58.55
772.306	20.45
772.745	2.85
773.185	0.25
773.625	11.65
774.065	-5.65
774.505	6.65
774.944	6.95
775.384	13.15
775.824	22.45
776.263	17.55
776.703	4.85
777.142	-2.75
777.582	7.65
778.021	0.95
778.461	3.45
778.9	7.75
779.34	11.15
779.779	4.25
780.219	-3.35
780.658	-4.65
781.097	5.15
781.537	5.85
781.976	1.15
782.415	1.25
782.855	4.55
783.294	-3.15
783.733	-2.55
784.172	7.15
784.611	4.45
785.05	5.65
785.489	6.35
785.928	3.95
786.367	6.45
786.806	-0.95
787.245	7.65
787.684	3.55
788.123	13.15
788.562	-3.75
789.001	4.75
789.44	4.55
789.879	3.55
790.317	0.85
790.756	5.35
791.195	-2.75
791.634	1.55
792.072	19.95
792.511	21.35
792.95	77.55
793.388	198.85
793.827	181.25
794.265	40.85
794.704	17.25
795.142	11.55
795.581	10.25
796.019	9.65
796.458	-0.75
796.896	4.05
797.334	0.25
797.773	3.85
798.211	24.15
798.649	33.15
799.087	92.25
799.526	141.25
799.964	182.65
800.402	195.15
800.84	64.25
801.278	8.35
801.716	1.55
802.154	4.05
802.592	15.35
803.03	6.45
803.468	-3.65
803.906	8.75
804.344	10.85
804.782	8.05
805.22	-0.25
805.658	-4.55
806.096	8.75
806.533	4.65
806.971	11.45
807.409	5.15
807.847	15.45
808.284	44.05
808.722	158.15
809.16	297.05
809.597	250.25
810.035	469.25
810.472	541.25
810.91	178.65
811.347	61.25
811.785	27.25
812.222	16.05
812.66	8.55
813.097	12.15
813.535	7.45
813.972	3.85
814.409	6.65
814.846	2.15
815.284	5.95
815.721	3.95
816.158	4.35
816.595	1.95
817.032	6.95
817.47	6.95
817.907	11.65
818.344	-0.55
818.781	1.15
819.218	0.75
819.655	0.05
820.092	1.65
820.529	-0.85
820.966	-5.65
821.403	1.65
821.839	-2.55
822.276	2.75
822.713	6.25
823.15	2.75
823.587	3.95
824.023	7.35
824.46	17.25
824.897	74.15
825.333	134.55
825.77	47.65
826.206	8.75
826.643	11.75
827.08	7.75
827.516	-4.25
827.953	-4.05
828.389	6.45
828.825	0.25
829.262	-0.35
829.698	-8.95
830.135	-1.65
830.571	-1.85
831.007	4.35
831.443	3.05
831.88	3.05
832.316	2.15
832.752	-0.05
833.188	2.45
833.624	-10.45
834.06	4.75
834.497	-5.75
834.933	0.05
835.369	0.25
835.805	-4.65
836.241	3.45
836.677	-1.45
837.112	-2.25
837.548	-6.45
837.984	3.05
838.42	-0.05
838.856	33.85
839.292	141.55
839.727	224.25
840.163	88.35
840.599	68.15
841.034	189.45
841.47	199.95
841.906	65.25
842.341	19.35
842.777	12.35
843.212	9.05
843.648	9.15
844.083	3.15
844.519	1.95
844.954	4.95
845.39	-1.85
845.825	-0.35
846.261	-2.65
846.696	-0.05
847.131	-3.85
847.566	6.15
848.002	-1.85
848.437	-4.65
848.872	-0.25
849.307	4.15
849.742	10.85
850.177	4.15
850.613	46.95
851.048	79.75
851.483	23.85
851.918	3.65
852.353	1.35
852.788	-8.15
853.223	-0.95
853.657	4.65
854.092	-1.25
854.527	-7.25
854.962	-0.45
855.397	-3.05
855.832	1.85
856.266	2.75
856.701	2.95
857.136	-5.35
857.57	-3.65
858.005	-5.75
858.44	1.75
858.874	-0.15
859.309	3.05
859.743	-9.85
860.178	-8.15
860.612	-7.75
861.047	0.05
861.481	4.85
861.915	-1.95
862.35	0.65
862.784	-11.95
863.218	-1.25
863.653	0.55
864.087	1.45
864.521	2.55
864.955	-0.35
865.39	5.15
865.824	3.35
866.258	4.95
866.692	1.05
867.126	2.65
867.56	-3.35
867.994	0.15
868.428	-6.15
868.862	1.45
869.296	0.25
869.73	6.45
870.164	-7.85
870.598	-7.45
871.031	-2.75
871.465	-0.15
871.899	3.05
872.333	-4.35
872.766	-4.55
873.2	-2.05
873.634	-1.45
874.067	-3.15
874.501	-3.85
874.935	2.25
875.368	-4.85
875.802	-2.35
876.235	-2.75
876.669	-5.85
877.102	-5.75
877.535	-6.55
877.969	-0.65
878.402	-0.35
878.836	-3.75
879.269	-7.35
879.702	-0.45
880.135	-2.05
880.569	-1.85
881.002	3.15
881.435	-7.85
881.868	-0.45
882.301	4.25
882.734	-3.15
883.167	1.65
883.601	-3.45
884.034	2.45
884.467	-8.55
884.899	-2.45
885.332	-3.55
885.765	-10.85
886.198	-2.95
886.631	-2.35
887.064	-1.45
887.497	0.15
887.929	3.75
888.362	-7.05
888.795	-4.15
889.228	-3.35
889.66	5.55
890.093	-6.05
890.526	1.65
890.958	-2.55
891.391	-1.75
891.823	2.45
892.256	-0.95
892.688	-6.75
893.121	-4.95
893.553	-3.65
893.985	1.65
894.418	5.35
894.85	-4.95
895.282	1.35
895.715	-5.05
896.147	-0.95
896.579	-0.75
897.011	-5.15
897.444	2.35
897.876	-8.75
898.308	-1.25
898.74	-3.05
899.172	-1.35
899.604	6.75
900.036	6.95
900.468	0.25
900.9	-4.55
901.332	-3.75
901.764	-11.15
902.196	-2.65
902.628	-1.95
903.06	-5.45
903.491	-0.65
903.923	-1.75
904.355	-1.05
904.787	-2.35
905.218	-3.55
905.65	-3.25
906.082	-5.85
906.513	-4.15
906.945	-2.75
907.376	-7.85
907.808	-4.85
908.239	-5.85
908.671	-9.25
909.102	-3.55
909.534	-5.85
909.965	-0.75
910.397	2.75
910.828	28.85
911.259	42.65
911.691	13.95
912.122	2.55
912.553	-2.85
912.984	2.45
913.415	3.95
913.847	6.05
914.278	-5.95
914.709	-8.75
915.14	5.35
915.571	2.05
916.002	-2.55
916.433	7.55
916.864	0.35
917.295	-2.85
917.726	1.45
918.157	-8.35
918.587	0.75
919.018	-6.65
919.449	-0.25
919.88	-1.45
920.311	1.65
920.741	-1.25
921.172	12.65
921.603	10.95
922.033	-3.05
922.464	5.05
922.895	-0.85
923.325	0.35
923.756	-0.65
924.186	-9.85
924.617	-3.05
925.047	-11.35
925.478	-2.45
925.908	-8.65
926.338	-5.05
926.769	-4.05
927.199	-1.25
927.629	-10.65
928.06	-2.45
928.49	-5.15
928.92	3.75
929.35	0.45
929.78	-6.85
930.21	-5.15
930.641	-2.55
931.071	2.85
931.501	-4.75
931.931	-4.65
932.361	-1.95
932.791	-0.65
933.221	-2.45
933.651	-9.85
934.08	-5.65
934.51	9.25
934.94	0.15
935.37	-1.05
935.8	6.35
936.229	-3.65
936.659	2.35
937.089	-11.35
937.519	-4.45
937.948	1.95
938.378	-1.25
938.807	-2.85
939.237	0.55
939.666	1.25
940.096	-9.05
940.525	-2.05
940.955	-3.75
941.384	-0.45
941.814	-4.65
942.243	-3.55
942.672	1.35
943.102	-6.45
943.531	-4.45
943.96	-0.95
944.39	-2.35
944.819	-2.35
945.248	-1.25
945.677	2.35
946.106	0.35
946.535	-0.65
946.964	-2.25
947.393	-2.15
947.822	-1.45
948.251	-7.65
948.68	4.75
949.109	1.55
949.538	4.65
949.967	-2.35
950.396	2.55
950.825	-0.45
951.254	-6.15
951.682	-11.55
952.111	-4.55
952.54	-0.25
952.969	-8.65
953.397	-12.85
953.826	-5.35
954.254	-8.05
954.683	-1.75
955.112	-9.85
955.54	-5.75
955.969	0.85
956.397	-7.45
956.826	-4.25
957.254	1.35
957.682	-4.55
958.111	-0.45
958.539	-6.55
958.967	-0.45
959.396	-5.65
959.824	-2.45
960.252	0.85
960.68	-8.95
961.109	-4.45
961.537	-5.95
961.965	-1.85
962.393	-6.95
962.821	-8.05
963.249	-3.45
963.677	-1.35
964.105	-6.55
964.533	-4.25
964.961	2.85
965.389	-6.45
965.817	-5.35
966.245	-4.75
966.672	-7.15
967.1	-11.05
967.528	-0.35
967.956	-2.35
968.383	-2.05
968.811	-6.15
969.239	-2.75
969.666	-5.05
970.094	-5.65
970.522	0.75
970.949	-6.85
971.377	-8.25
971.804	-11.15
972.232	-5.85
972.659	-6.45
973.087	-6.05
973.514	-10.45
973.941	-8.85
974.369	-2.55
974.796	-3.55
975.223	0.45
975.651	-5.75
976.078	-0.05
976.505	-2.45
976.932	-8.45
977.359	1.55
977.786	1.25
978.214	-3.95
978.641	-4.85
979.068	-5.25
979.495	-12.05
979.922	-5.25
980.349	-7.95
980.776	3.05
981.202	0.35
981.629	-0.65
982.056	3.35
982.483	-5.55
982.91	1.25
983.337	-7.55
983.763	4.15
984.19	-15.65
984.617	-3.95
985.043	-5.55
985.47	-5.55
985.897	-5.35
986.323	-8.45
986.75	0.15
987.176	-6.85
987.603	-5.05
988.029	0.35
988.456	-1.25
988.882	-0.65
989.308	-6.55
989.735	-2.25
990.161	-1.35
990.587	-0.25
991.014	3.25
991.44	2.85
991.866	-4.65
992.292	-9.65
992.719	-8.95
993.145	2.15
993.571	-8.05
993.997	-1.65
994.423	-4.25
994.849	-9.75
995.275	-3.55
995.701	-2.65
996.127	-3.25
996.553	3.65
996.979	-6.55
997.405	-1.85
997.83	-0.45
998.256	-4.95
998.682	-11.75
999.108	-10.65
999.534	-6.75
999.959	-4.65
1000.385	-9.05
1000.811	-1.95
1001.236	-9.15
1001.662	-2.75
1002.087	-7.05
1002.513	0.95
1002.938	2.15
1003.364	-5.65
1003.789	-5.75
1004.215	0.45
1004.64	-2.75
1005.066	7.65
1005.491	-3.25
1005.916	-4.65
1006.342	-9.35
1006.767	-8.75
1007.192	0.05
1007.617	-1.15
1008.042	-7.85
1008.468	-12.15
1008.893	-5.05
1009.318	-5.45
1009.743	-1.45
1010.168	-3.25
1010.593	-7.75
1011.018	-15.25
1011.443	-9.55
1011.868	-2.55
1012.293	-0.85
1012.718	-10.05
1013.143	-0.65
1013.567	-0.65
1013.992	-6.95
1014.417	-17.15
1014.842	-2.95
1015.267	-5.15
1015.691	-6.85
1016.116	2.15
1016.541	-3.35
1016.965	-1.65
1017.39	0.15
1017.814	-1.95
1018.239	-4.35
1018.663	-2.25
1019.088	-6.45
1019.512	-3.75
1019.937	-5.15
1020.361	-7.25
1020.785	-4.55
1021.21	0.25
1021.634	-9.65
1022.058	-2.35
1022.483	2.95
1022.907	-5.15
1023.331	-1.35
1023.755	-7.85
1024.179	-1.85
1024.604	-8.45
1025.028	-2.65
1025.452	-6.85
1025.876	-6.05
1026.3	0.35
1026.724	-5.35
1027.148	-5.25
1027.572	-6.15
1027.996	-1.25
1028.42	-2.35
1028.843	-3.15
1029.267	-5.75
1029.691	-6.65
1030.115	-7.55
1030.539	-7.65
1030.962	-7.65
1031.386	-8.65
1031.81	5.65
1032.233	1.85
1032.657	-3.85
1033.08	1.75
1033.504	-4.85
1033.927	-5.55
1034.351	0.25
1034.774	-2.05
1035.198	-2.95
1035.621	-11.55
1036.045	-8.75
1036.468	-0.25
1036.891	-9.25
1037.315	-9.85
1037.738	-11.25
1038.161	2.75
1038.584	-7.35
1039.008	-10.05
1039.431	-5.55
1039.854	-7.35
1040.277	-8.75
1040.7	-13.55
1041.123	-6.45
1041.546	-5.65
1041.969	-3.45
1042.392	-0.55
1042.815	-2.75
1043.238	-0.25
1043.661	4.95
1044.084	1.15
1044.507	-5.45
1044.93	-5.35
1045.352	-2.35
1045.775	0.35
1046.198	-6.65
1046.621	-4.75
1047.043	-4.05
1047.466	6.55
1047.889	-0.65
1048.311	-6.45
1048.734	-5.25
1049.156	-1.65
1049.579	-3.55
1050.001	-6.45
1050.424	2.65
1050.846	-9.65
1051.269	-7.85
1051.691	-6.85
1052.113	-6.45
1052.536	-2.75
1052.958	-5.05
1053.38	-0.05
1053.802	-8.65
1054.225	-1.05
1054.647	-8.65
1055.069	-7.55
1055.491	-3.75
1055.913	-11.35
1056.335	1.25
1056.757	-2.95
1057.179	-5.95
1057.601	-6.75
1058.023	-3.85
1058.445	-3.85
1058.867	2.25
1059.289	0.35
1059.711	-7.35
1060.133	-3.55
1060.555	-4.35
1060.976	-3.45
1061.398	-6.45
1061.82	-3.85
1062.241	-5.25
1062.663	-5.05
1063.085	-8.85
1063.506	0.55
1063.928	-4.55
1064.35	1.35
1064.771	-11.85
1065.193	1.35
1065.614	-7.75
1066.035	-1.55
1066.457	-2.85
1066.878	2.55
1067.3	-6.25
1067.721	-5.15
1068.142	-7.25
1068.564	-5.95
1068.985	-4.35
1069.406	-2.45
1069.827	-6.15
1070.248	2.85
1070.67	-5.45
1071.091	-9.15
1071.512	-6.85
1071.933	-3.75
1072.354	-6.85
1072.775	-4.75
1073.196	-3.95
1073.617	-0.15
1074.038	-1.95
1074.459	-4.25
1074.88	-5.15
1075.3	4.25
1075.721	-7.75
1076.142	0.65
1076.563	3.15
1076.983	-11.85
1077.404	-5.15
1077.825	-13.25
1078.246	-7.95
1078.666	-8.45
1079.087	0.35
1079.507	-5.65
1079.928	5.25
1080.348	0.85
1080.769	-6.45
1081.189	0.45
1081.61	-6.85
1082.03	-4.25
1082.451	-3.05
1082.871	-7.35
1083.291	-6.65
1083.711	-9.65
1084.132	-2.25
1084.552	-7.25
1084.972	-2.95
1085.392	-5.75
1085.813	-8.15
1086.233	-4.65
1086.653	-9.65
1087.073	-0.55
1087.493	-10.65
1087.913	-6.55
1088.333	-8.65
1088.753	-4.45
1089.173	-1.95
1089.593	0.15
1090.013	-1.85
1090.433	-2.25
1090.852	0.55
1091.272	-1.05
1091.692	-6.95
1092.112	-6.75
1092.531	-3.95
1092.951	-13.45
1093.371	-2.85
1093.79	2.45
1094.21	-10.05
1094.63	-2.55
1095.049	-4.85
1095.469	5.65
1095.888	0.15
1096.308	2.85
1096.727	3.65
1097.146	-10.35
1097.566	1.95
1097.985	-5.05
1098.405	-4.25
1098.824	-2.15
1099.243	-5.35
1099.662	-3.75
1100.082	3.05
1100.501	-6.55
1100.92	-2.85
1101.339	-3.95
1101.758	-3.95
