Data from 20171114-ORNL-Ar_H_NY_Subt18_08-07-55-184.txt Node
Date: Tue Nov 14 08:07:55 EST 2017
User: Ender
Spectrometer: HR+D1039
Trigger mode: 0
Integration Time (sec): 2.730000E-2
Scans to average: 10
Electric dark correction enabled: true
Nonlinearity correction enabled: false
Boxcar width: 0
XAxis mode: Wavelengths
Number of Pixels in Spectrum: 2048
>>>>>Begin Spectral Data<<<<<
187.836	-0.16
188.309	-0.16
188.782	-0.16
189.255	1.44
189.728	-0.66
190.201	1.54
190.674	0.34
191.147	3.64
191.619	-10.36
192.092	-1.46
192.565	3.44
193.038	-0.56
193.511	4.24
193.984	-0.86
194.456	-1.06
194.929	3.74
195.402	-2.76
195.874	-0.56
196.347	-2.76
196.82	-16.76
197.292	0.44
197.765	-4.16
198.237	-4.86
198.71	-0.36
199.182	-3.96
199.655	1.44
200.127	4.64
200.6	-2.56
201.072	-3.86
201.544	-0.26
202.017	-5.56
202.489	4.44
202.961	-5.26
203.433	-5.26
203.906	-5.06
204.378	-8.16
204.85	-2.16
205.322	-5.96
205.794	-6.36
206.266	-7.26
206.739	-8.86
207.211	-2.06
207.683	-11.56
208.155	-1.66
208.627	-1.86
209.099	-10.56
209.57	-7.76
210.042	-5.16
210.514	-6.36
210.986	3.64
211.458	-13.86
211.93	-7.36
212.402	-0.06
212.873	-1.36
213.345	-8.66
213.817	-16.16
214.288	-5.36
214.76	-13.66
215.232	-5.66
215.703	-2.26
216.175	-7.96
216.646	-7.86
217.118	-7.16
217.589	1.74
218.061	-8.86
218.532	-7.26
219.004	-7.66
219.475	-4.46
219.946	-2.56
220.418	-5.86
220.889	1.04
221.36	-2.06
221.832	-1.76
222.303	-8.46
222.774	1.64
223.245	-7.96
223.717	-8.36
224.188	-1.56
224.659	-6.46
225.13	-9.26
225.601	-6.46
226.072	4.34
226.543	1.14
227.014	-0.36
227.485	-0.16
227.956	-9.96
228.427	1.24
228.898	-1.66
229.369	1.04
229.839	-1.56
230.31	-3.46
230.781	2.94
231.252	0.04
231.722	-10.76
232.193	-1.86
232.664	3.84
233.135	-1.36
233.605	0.94
234.076	-3.66
234.546	0.34
235.017	-0.16
235.487	-2.36
235.958	-4.86
236.428	-1.06
236.899	5.64
237.369	5.94
237.84	-3.16
238.31	5.54
238.78	-1.36
239.251	-3.16
239.721	-1.96
240.191	-1.76
240.662	-0.46
241.132	-0.26
241.602	-6.86
242.072	-1.96
242.542	8.44
243.013	-4.16
243.483	2.24
243.953	6.04
244.423	-0.06
244.893	-0.46
245.363	2.84
245.833	-1.96
246.303	-0.16
246.773	3.24
247.243	-1.86
247.712	-0.56
248.182	12.64
248.652	6.24
249.122	-1.36
249.592	5.94
250.061	16.94
250.531	33.34
251.001	14.34
251.471	17.74
251.94	15.34
252.41	8.64
252.879	-2.06
253.349	12.34
253.818	6.84
254.288	4.24
254.757	2.54
255.227	0.44
255.696	8.04
256.166	-0.06
256.635	6.24
257.105	3.34
257.574	2.94
258.043	9.64
258.513	10.64
258.982	14.44
259.451	9.44
259.92	10.14
260.389	14.24
260.859	16.24
261.328	6.84
261.797	16.14
262.266	1.24
262.735	6.94
263.204	-1.76
263.673	-0.06
264.142	3.34
264.611	-0.86
265.08	-3.76
265.549	-2.36
266.018	5.54
266.487	-2.56
266.955	-2.86
267.424	-5.16
267.893	6.04
268.362	-0.16
268.83	-1.06
269.299	15.04
269.768	7.84
270.236	13.04
270.705	-0.36
271.174	5.44
271.642	-1.06
272.111	13.64
272.579	16.44
273.048	22.04
273.516	28.94
273.985	27.54
274.453	21.34
274.922	7.04
275.39	9.94
275.858	-2.26
276.327	11.24
276.795	15.84
277.263	9.14
277.731	22.94
278.2	46.04
278.668	51.34
279.136	46.54
279.604	22.84
280.072	12.74
280.54	8.34
281.008	4.84
281.477	11.24
281.945	17.34
282.413	10.04
282.881	13.14
283.348	5.84
283.816	21.04
284.284	10.74
284.752	20.94
285.22	6.94
285.688	7.14
286.156	15.24
286.623	39.84
287.091	47.54
287.559	28.84
288.026	13.24
288.494	14.04
288.962	4.74
289.429	7.74
289.897	17.54
290.364	9.74
290.832	13.94
291.3	10.14
291.767	19.94
292.234	18.94
292.702	14.84
293.169	18.64
293.637	14.74
294.104	19.24
294.571	6.44
295.039	11.14
295.506	3.44
295.973	13.44
296.44	13.04
296.908	18.84
297.375	14.64
297.842	17.34
298.309	12.14
298.776	7.64
299.243	18.74
299.71	10.24
300.177	21.64
300.644	17.94
301.111	16.34
301.578	26.04
302.045	17.84
302.512	20.14
302.979	19.24
303.446	17.14
303.913	16.74
304.379	17.34
304.846	22.44
305.313	16.34
305.78	18.94
306.246	21.24
306.713	25.04
307.18	23.64
307.646	27.14
308.113	31.54
308.579	18.64
309.046	29.24
309.512	19.34
309.979	14.64
310.445	24.64
310.912	23.94
311.378	29.14
311.845	29.54
312.311	28.74
312.777	28.04
313.244	34.34
313.71	27.44
314.176	26.54
314.642	24.64
315.109	25.04
315.575	27.74
316.041	37.14
316.507	29.84
316.973	34.14
317.439	34.84
317.905	33.34
318.371	33.84
318.837	27.94
319.303	32.14
319.769	33.54
320.235	35.84
320.701	27.94
321.167	26.64
321.633	30.34
322.099	39.74
322.564	46.44
323.03	30.14
323.496	35.64
323.962	36.34
324.427	27.24
324.893	39.34
325.359	37.74
325.824	37.24
326.29	32.84
326.755	42.24
327.221	42.54
327.686	38.44
328.152	49.64
328.617	38.34
329.083	35.74
329.548	43.44
330.014	45.04
330.479	31.54
330.944	39.54
331.41	33.94
331.875	45.04
332.34	33.74
332.805	38.34
333.271	45.14
333.736	43.54
334.201	44.74
334.666	47.84
335.131	47.44
335.596	46.74
336.061	48.54
336.526	38.34
336.991	48.54
337.456	49.74
337.921	44.84
338.386	44.24
338.851	45.24
339.316	47.94
339.781	48.44
340.246	46.74
340.711	48.14
341.175	53.04
341.64	39.44
342.105	51.14
342.569	51.24
343.034	53.14
343.499	50.54
343.963	46.74
344.428	60.14
344.893	55.64
345.357	56.04
345.822	56.04
346.286	65.84
346.751	64.64
347.215	64.24
347.679	69.44
348.144	94.64
348.608	74.04
349.073	68.14
349.537	80.14
350.001	71.24
350.465	90.04
350.93	78.94
351.394	71.24
351.858	68.84
352.322	86.94
352.786	81.54
353.25	97.84
353.715	116.24
354.179	91.94
354.643	115.14
355.107	113.64
355.571	105.24
356.035	97.74
356.498	118.14
356.962	120.74
357.426	124.94
357.89	114.54
358.354	86.94
358.818	81.64
359.281	78.04
359.745	73.04
360.209	74.54
360.673	68.74
361.136	84.64
361.6	81.34
362.064	81.24
362.527	83.24
362.991	89.64
363.454	77.24
363.918	75.74
364.381	79.94
364.845	76.94
365.308	79.64
365.772	87.04
366.235	86.94
366.698	74.64
367.162	86.64
367.625	83.54
368.088	89.84
368.552	90.54
369.015	82.54
369.478	94.34
369.941	101.44
370.404	96.44
370.867	101.74
371.331	107.84
371.794	117.34
372.257	109.64
372.72	113.74
373.183	107.04
373.646	104.94
374.109	103.74
374.572	107.64
375.035	104.14
375.497	109.74
375.96	99.64
376.423	101.74
376.886	116.34
377.349	109.54
377.811	104.04
378.274	104.34
378.737	106.04
379.199	109.14
379.662	110.94
380.125	112.54
380.587	118.04
381.05	125.54
381.512	127.64
381.975	138.64
382.437	127.04
382.9	133.54
383.362	134.24
383.825	145.64
384.287	142.64
384.75	137.54
385.212	140.84
385.674	140.94
386.136	140.84
386.599	119.74
387.061	128.64
387.523	130.64
387.985	139.24
388.447	141.74
388.91	146.64
389.372	161.34
389.834	148.74
390.296	151.64
390.758	160.94
391.22	175.64
391.682	215.34
392.144	302.44
392.606	228.34
393.068	170.74
393.529	173.54
393.991	156.34
394.453	150.54
394.915	159.94
395.377	204.14
395.838	222.74
396.3	156.24
396.762	145.34
397.224	133.74
397.685	133.24
398.147	130.34
398.608	135.54
399.07	131.14
399.531	133.64
399.993	146.44
400.454	148.44
400.916	150.24
401.377	142.74
401.839	147.74
402.3	152.04
402.762	169.74
403.223	178.34
403.684	176.54
404.145	162.34
404.607	165.44
405.068	167.14
405.529	173.74
405.99	183.24
406.451	175.04
406.913	174.54
407.374	158.84
407.835	160.94
408.296	165.64
408.757	170.54
409.218	184.84
409.679	184.74
410.14	173.84
410.601	178.84
411.062	184.84
411.522	193.14
411.983	186.14
412.444	175.74
412.905	180.44
413.366	181.84
413.826	199.14
414.287	214.54
414.748	268.94
415.208	245.04
415.669	211.14
416.13	206.74
416.59	195.04
417.051	215.34
417.511	218.94
417.972	235.44
418.432	246.84
418.893	287.84
419.353	246.84
419.814	199.24
420.274	189.44
420.734	183.74
421.195	197.04
421.655	198.04
422.115	195.64
422.576	193.64
423.036	197.54
423.496	205.54
423.956	223.54
424.416	231.14
424.876	267.44
425.336	263.04
425.797	262.24
426.257	259.74
426.717	239.44
427.177	231.14
427.637	229.14
428.097	242.34
428.556	253.44
429.016	274.34
429.476	266.04
429.936	279.64
430.396	291.14
430.856	296.94
431.315	313.84
431.775	355.54
432.235	394.34
432.694	357.54
433.154	370.04
433.614	405.34
434.073	352.84
434.533	295.04
434.993	275.44
435.452	287.14
435.912	302.24
436.371	292.54
436.83	282.64
437.29	267.14
437.749	249.24
438.209	252.94
438.668	271.14
439.127	297.04
439.587	262.04
440.046	246.74
440.505	265.54
440.964	277.94
441.424	326.84
441.883	322.84
442.342	266.94
442.801	227.54
443.26	222.24
443.719	219.84
444.178	223.44
444.637	216.64
445.096	223.54
445.555	223.44
446.014	234.04
446.473	230.14
446.932	233.44
447.391	226.14
447.849	232.74
448.308	222.44
448.767	218.94
449.226	234.54
449.685	235.44
450.143	246.64
450.602	234.84
451.061	228.84
451.519	229.04
451.978	231.24
452.436	231.64
452.895	242.34
453.353	258.54
453.812	242.04
454.27	235.84
454.729	231.74
455.187	247.14
455.646	238.44
456.104	249.84
456.562	258.84
457.021	267.64
457.479	263.04
457.937	275.24
458.395	263.94
458.854	252.44
459.312	258.54
459.77	266.94
460.228	259.94
460.686	244.74
461.144	247.44
461.602	247.64
462.06	244.14
462.518	246.94
462.976	245.74
463.434	254.64
463.892	264.44
464.35	278.84
464.808	285.04
465.266	264.44
465.724	267.14
466.181	267.24
466.639	273.74
467.097	282.24
467.555	298.04
468.012	297.14
468.47	308.44
468.928	325.34
469.385	341.44
469.843	346.94
470.3	356.94
470.758	363.64
471.215	387.44
471.673	399.84
472.13	406.44
472.588	424.84
473.045	374.14
473.503	379.14
473.96	401.94
474.417	405.84
474.875	431.24
475.332	473.44
475.789	455.54
476.246	468.04
476.704	487.84
477.161	512.54
477.618	527.64
478.075	563.24
478.532	618.84
478.989	691.44
479.446	811.94
479.903	772.74
480.36	812.74
480.817	866.34
481.274	973.24
481.731	1088.54
482.188	1167.24
482.645	1302.84
483.102	1413.94
483.558	1553.94
484.015	1607.54
484.472	1594.14
484.929	1535.94
485.385	1468.54
485.842	1432.94
486.299	1374.54
486.755	1298.64
487.212	1100.54
487.668	927.34
488.125	862.34
488.582	784.34
489.038	745.24
489.494	708.84
489.951	681.34
490.407	667.04
490.864	638.94
491.32	637.64
491.776	635.74
492.233	647.34
492.689	610.94
493.145	610.64
493.602	584.24
494.058	604.04
494.514	609.14
494.97	639.84
495.426	640.44
495.882	608.94
496.338	602.94
496.794	609.04
497.251	610.64
497.707	621.54
498.163	625.54
498.618	640.44
499.074	637.94
499.53	673.14
499.986	668.74
500.442	642.74
500.898	624.74
501.354	619.64
501.809	629.34
502.265	636.54
502.721	667.74
503.177	667.34
503.632	668.54
504.088	669.54
504.543	703.44
504.999	703.84
505.455	649.44
505.91	613.04
506.366	626.34
506.821	625.64
507.277	617.34
507.732	624.24
508.187	617.24
508.643	619.64
509.098	625.94
509.553	642.44
510.009	654.14
510.464	666.14
510.919	688.34
511.375	689.84
511.83	689.14
512.285	706.84
512.74	749.44
513.195	770.94
513.65	757.74
514.105	750.24
514.56	757.24
515.015	781.94
515.47	794.64
515.925	775.44
516.38	776.54
516.835	777.84
517.29	773.64
517.745	770.24
518.2	750.84
518.655	735.84
519.109	728.04
519.564	726.44
520.019	715.84
520.474	712.14
520.928	719.54
521.383	707.14
521.838	698.74
522.292	693.54
522.747	700.64
523.201	698.44
523.656	686.64
524.11	685.44
524.565	688.94
525.019	688.14
525.474	691.84
525.928	695.24
526.382	687.34
526.837	698.24
527.291	691.94
527.745	693.14
528.2	679.44
528.654	668.24
529.108	675.44
529.562	679.44
530.016	683.74
530.47	687.54
530.925	683.84
531.379	684.44
531.833	697.14
532.287	697.64
532.741	694.24
533.195	690.14
533.649	694.94
534.103	712.04
534.556	698.24
535.01	704.34
535.464	691.34
535.918	702.64
536.372	708.64
536.826	715.44
537.279	705.24
537.733	701.14
538.187	706.84
538.64	704.34
539.094	721.34
539.548	717.74
540.001	719.04
540.455	720.74
540.908	722.74
541.362	733.54
541.815	732.84
542.269	751.64
542.722	747.14
543.175	764.24
543.629	757.64
544.082	774.84
544.536	776.34
544.989	773.54
545.442	792.14
545.895	776.84
546.349	790.84
546.802	781.24
547.255	795.04
547.708	799.24
548.161	810.44
548.614	801.54
549.067	817.24
549.52	814.24
549.973	803.24
550.426	792.64
550.879	782.64
551.332	783.94
551.785	798.94
552.238	790.74
552.691	803.14
553.144	819.84
553.596	837.14
554.049	855.14
554.502	885.44
554.955	891.24
555.407	892.34
555.86	884.14
556.313	885.24
556.765	879.24
557.218	872.84
557.67	862.74
558.123	853.74
558.576	863.84
559.028	858.74
559.48	878.64
559.933	860.04
560.385	835.24
560.838	794.04
561.29	762.24
561.742	780.44
562.195	754.24
562.647	749.34
563.099	760.14
563.551	766.34
564.004	783.24
564.456	769.24
564.908	751.44
565.36	740.04
565.812	725.84
566.264	718.54
566.716	715.74
567.168	706.24
567.62	729.64
568.072	687.34
568.524	694.14
568.976	678.04
569.428	663.34
569.88	674.24
570.332	674.84
570.784	670.34
571.235	669.74
571.687	686.34
572.139	685.34
572.59	704.64
573.042	701.04
573.494	697.04
573.945	683.74
574.397	674.24
574.849	677.44
575.3	680.84
575.752	671.84
576.203	668.44
576.655	672.94
577.106	662.14
577.557	652.74
578.009	666.64
578.46	663.14
578.912	653.64
579.363	656.24
579.814	661.24
580.265	650.74
580.717	663.64
581.168	661.64
581.619	664.94
582.07	670.14
582.521	668.14
582.972	662.54
583.423	663.44
583.875	672.94
584.326	695.34
584.777	742.84
585.227	832.74
585.678	922.44
586.129	1036.64
586.58	1108.64
587.031	1187.34
587.482	1341.34
587.933	1539.14
588.384	1344.04
588.834	982.04
589.285	808.14
589.736	778.04
590.186	768.24
590.637	763.24
591.088	734.34
591.538	734.44
591.989	719.94
592.439	723.34
592.89	718.54
593.34	710.64
593.791	703.34
594.241	699.94
594.692	691.84
595.142	693.24
595.593	695.94
596.043	708.74
596.493	699.14
596.943	708.84
597.394	708.74
597.844	710.14
598.294	722.34
598.744	745.94
599.195	766.24
599.645	812.44
600.095	843.24
600.545	902.64
600.995	956.54
601.445	1014.34
601.895	1072.44
602.345	1120.04
602.795	1091.84
603.245	1052.64
603.695	989.14
604.145	939.34
604.594	891.24
605.044	846.24
605.494	769.54
605.944	738.54
606.393	727.94
606.843	722.74
607.293	735.44
607.743	724.24
608.192	736.14
608.642	754.34
609.091	761.74
609.541	766.84
609.99	763.64
610.44	765.34
610.889	724.44
611.339	697.84
611.788	681.74
612.238	692.34
612.687	709.94
613.136	720.14
613.586	729.54
614.035	731.34
614.484	763.24
614.933	759.74
615.383	753.84
615.832	732.84
616.281	717.34
616.73	676.84
617.179	665.04
617.628	645.84
618.077	628.14
618.526	622.94
618.975	625.24
619.424	610.04
619.873	608.84
620.322	617.04
620.771	595.94
621.22	587.04
621.669	591.04
622.118	586.84
622.567	584.94
623.015	566.84
623.464	563.24
623.913	565.24
624.361	546.54
624.81	546.84
625.259	555.04
625.707	549.14
626.156	548.34
626.604	561.64
627.053	556.54
627.501	560.24
627.95	561.94
628.398	573.84
628.847	559.24
629.295	560.94
629.744	575.94
630.192	569.34
630.64	562.64
631.089	564.14
631.537	576.14
631.985	590.74
632.433	605.24
632.881	614.84
633.33	671.74
633.778	646.54
634.226	572.24
634.674	571.64
635.122	570.44
635.57	597.04
636.018	632.84
636.466	576.74
636.914	556.54
637.362	564.34
637.81	571.24
638.258	582.14
638.705	585.04
639.153	606.64
639.601	612.64
640.049	634.74
640.497	659.14
640.944	685.54
641.392	638.74
641.84	619.84
642.287	593.34
642.735	570.74
643.182	576.74
643.63	568.74
644.078	572.04
644.525	584.54
644.973	588.14
645.42	602.14
645.867	615.24
646.315	638.44
646.762	669.44
647.21	678.24
647.657	724.64
648.104	752.94
648.551	776.44
648.999	842.74
649.446	914.44
649.893	1014.54
650.34	1180.04
650.787	1410.44
651.234	1758.14
651.682	2302.24
652.129	3173.34
652.576	4566.44
653.023	6767.54
653.47	9274.54
653.917	11479.54
654.363	13205.14
654.81	14521.74
655.257	13817.24
655.704	9044.54
656.151	5323.34
656.598	3431.64
657.044	2446.64
657.491	1865.74
657.938	1480.74
658.385	1243.94
658.831	1080.24
659.278	975.04
659.724	849.14
660.171	789.94
660.618	725.34
661.064	691.24
661.511	663.44
661.957	646.34
662.404	644.44
662.85	648.44
663.296	621.04
663.743	559.04
664.189	543.84
664.635	533.44
665.082	520.94
665.528	526.04
665.974	509.04
666.42	511.94
666.867	497.24
667.313	488.94
667.759	480.64
668.205	486.84
668.651	489.24
669.097	487.04
669.543	513.94
669.989	472.34
670.435	448.04
670.881	441.54
671.327	448.44
671.773	462.64
672.219	485.54
672.665	551.64
673.11	585.94
673.556	623.24
674.002	658.94
674.448	632.44
674.893	536.94
675.339	468.84
675.785	437.14
676.23	413.64
676.676	392.24
677.122	382.24
677.567	367.64
678.013	360.04
678.458	362.04
678.904	362.24
679.349	347.34
679.794	354.14
680.24	346.94
680.685	345.34
681.131	354.94
681.576	346.34
682.021	355.44
682.466	343.64
682.912	346.44
683.357	349.34
683.802	375.44
684.247	411.44
684.692	448.44
685.137	484.84
685.583	524.84
686.028	549.94
686.473	514.64
686.918	443.04
687.363	410.14
687.807	381.44
688.252	360.84
688.697	353.34
689.142	339.34
689.587	332.54
690.032	322.34
690.477	339.54
690.921	351.64
691.366	379.24
691.811	404.74
692.255	427.34
692.7	451.94
693.145	503.04
693.589	708.04
694.034	1128.44
694.478	1528.24
694.923	1704.34
695.367	2217.84
695.812	1161.14
696.256	492.94
696.701	371.04
697.145	336.74
697.59	319.34
698.034	316.54
698.478	319.04
698.922	323.64
699.367	322.54
699.811	334.94
700.255	351.34
700.699	386.44
701.143	428.44
701.588	467.64
702.032	521.04
702.476	514.34
702.92	488.34
703.364	491.74
703.808	640.34
704.252	1051.14
704.696	1452.54
705.14	1641.44
705.584	2083.94
706.027	1037.24
706.471	512.34
706.915	397.94
707.359	339.54
707.803	319.44
708.246	305.64
708.69	311.24
709.134	315.44
709.577	302.44
710.021	319.24
710.465	308.04
710.908	299.54
711.352	294.94
711.795	311.44
712.239	349.34
712.682	389.34
713.126	411.04
713.569	463.74
714.012	365.14
714.456	313.94
714.899	296.34
715.342	271.74
715.786	261.24
716.229	265.54
716.672	256.84
717.115	244.54
717.558	254.94
718.002	247.84
718.445	263.64
718.888	282.14
719.331	284.94
719.774	304.24
720.217	300.34
720.66	281.04
721.103	270.94
721.546	258.84
721.989	245.34
722.432	233.44
722.874	237.54
723.317	226.94
723.76	231.44
724.203	255.04
724.645	319.64
725.088	452.94
725.531	556.14
725.974	638.04
726.416	538.54
726.859	307.54
727.301	237.64
727.744	229.44
728.187	236.24
728.629	235.14
729.071	240.54
729.514	259.64
729.956	268.64
730.399	277.34
730.841	275.34
731.283	265.84
731.726	257.34
732.168	259.64
732.61	261.54
733.053	279.64
733.495	314.24
733.937	354.04
734.379	391.24
734.821	439.14
735.263	548.94
735.705	845.44
736.148	1600.44
736.59	2559.84
737.032	2964.24
737.474	2420.04
737.916	792.54
738.357	417.04
738.799	324.34
739.241	291.24
739.683	278.54
740.125	285.24
740.567	295.34
741.008	310.54
741.45	308.24
741.892	312.14
742.334	339.84
742.775	352.14
743.217	333.64
743.658	265.74
744.1	249.74
744.542	257.34
744.983	307.84
745.425	345.54
745.866	337.14
746.307	283.94
746.749	278.84
747.19	328.04
747.632	462.84
748.073	902.14
748.514	1874.54
748.956	2812.44
749.397	3533.54
749.838	2913.24
750.279	2895.34
750.72	1457.74
751.162	537.54
751.603	310.64
752.044	252.04
752.485	214.54
752.926	203.44
753.367	194.34
753.808	191.64
754.249	183.84
754.69	185.64
755.131	183.24
755.572	180.34
756.013	178.94
756.453	187.84
756.894	188.44
757.335	194.04
757.776	199.64
758.216	196.54
758.657	202.94
759.098	204.34
759.538	220.44
759.979	268.44
760.42	381.84
760.86	722.84
761.301	1863.34
761.741	4436.24
762.182	6278.04
762.622	4385.24
763.063	1284.24
763.503	534.44
763.943	344.84
764.384	345.84
764.824	431.24
765.264	453.84
765.705	316.94
766.145	210.34
766.585	188.94
767.025	176.04
767.465	192.44
767.906	254.54
768.346	335.94
768.786	357.64
769.226	271.24
769.666	333.34
770.106	640.74
770.546	1583.94
770.986	2599.24
771.426	2299.64
771.866	786.74
772.306	317.54
772.745	208.24
773.185	176.04
773.625	168.74
774.065	167.64
774.505	201.14
774.944	323.04
775.384	722.44
775.824	1280.64
776.263	1225.74
776.703	521.44
777.142	232.04
777.582	161.94
778.021	136.64
778.461	135.84
778.9	139.44
779.34	134.44
779.779	118.14
780.219	116.24
780.658	112.44
781.097	105.94
781.537	112.34
781.976	107.84
782.415	109.94
782.855	103.94
783.294	104.24
783.733	105.14
784.172	105.84
784.611	99.24
785.05	106.14
785.489	112.34
785.928	116.04
786.367	119.04
786.806	123.84
787.245	133.04
787.684	136.44
788.123	145.54
788.562	135.44
789.001	123.14
789.44	121.14
789.879	116.34
790.317	111.44
790.756	128.94
791.195	120.74
791.634	144.34
792.072	202.74
792.511	375.34
792.95	1020.34
793.388	2116.24
793.827	1890.44
794.265	670.54
794.704	278.54
795.142	185.84
795.581	153.64
796.019	133.54
796.458	126.54
796.896	123.94
797.334	135.64
797.773	156.04
798.211	222.94
798.649	447.34
799.087	1022.24
799.526	1577.34
799.964	1984.74
800.402	1944.44
800.84	735.94
801.278	297.04
801.716	183.14
802.154	154.74
802.592	142.24
803.03	142.84
803.468	135.64
803.906	142.74
804.344	151.84
804.782	138.14
805.22	130.94
805.658	123.24
806.096	145.94
806.533	153.24
806.971	170.94
807.409	211.04
807.847	325.94
808.284	673.94
808.722	1891.94
809.16	3229.54
809.597	3118.74
810.035	5387.74
810.472	5576.84
810.91	2022.84
811.347	785.54
811.785	402.54
812.222	247.74
812.66	191.74
813.097	161.84
813.535	138.14
813.972	125.04
814.409	116.04
814.846	107.64
815.284	105.74
815.721	100.34
816.158	106.04
816.595	122.74
817.032	181.14
817.47	194.84
817.907	168.24
818.344	157.34
818.781	113.94
819.218	104.84
819.655	133.04
820.092	180.64
820.529	206.34
820.966	174.64
821.403	136.64
821.839	106.74
822.276	102.34
822.713	125.94
823.15	132.04
823.587	112.04
824.023	146.14
824.46	306.94
824.897	893.54
825.333	1322.24
825.77	567.04
826.206	224.14
826.643	137.14
827.08	101.14
827.516	80.24
827.953	76.04
828.389	74.24
828.825	64.34
829.262	61.54
829.698	62.04
830.135	61.44
830.571	58.34
831.007	59.94
831.443	63.04
831.88	64.84
832.316	64.34
832.752	68.14
833.188	64.44
833.624	60.84
834.06	61.64
834.497	66.14
834.933	63.64
835.369	76.44
835.805	70.64
836.241	78.14
836.677	77.94
837.112	91.64
837.548	109.94
837.984	129.24
838.42	200.24
838.856	505.04
839.292	1521.54
839.727	2253.14
840.163	1049.34
840.599	930.94
841.034	2025.74
841.47	2049.84
841.906	760.34
842.341	333.74
842.777	228.74
843.212	335.44
843.648	313.54
844.083	152.84
844.519	97.84
844.954	77.94
845.39	59.64
845.825	55.64
846.261	61.64
846.696	54.24
847.131	52.84
847.566	57.64
848.002	52.54
848.437	53.14
848.872	55.84
849.307	64.24
849.742	91.84
850.177	178.04
850.613	554.74
851.048	852.74
851.483	362.64
851.918	147.84
852.353	83.64
852.788	58.54
853.223	51.14
853.657	47.64
854.092	48.54
854.527	40.64
854.962	44.54
855.397	42.24
855.832	48.74
856.266	38.74
856.701	37.44
857.136	33.94
857.57	45.24
858.005	54.54
858.44	57.64
858.874	44.14
859.309	51.84
859.743	45.14
860.178	46.24
860.612	39.04
861.047	50.04
861.481	60.34
861.915	71.74
862.35	52.94
862.784	37.74
863.218	37.44
863.653	28.04
864.087	44.64
864.521	47.44
864.955	64.24
865.39	154.24
865.824	172.64
866.258	117.44
866.692	161.64
867.126	162.84
867.56	100.84
867.994	50.34
868.428	36.64
868.862	51.24
869.296	49.34
869.73	58.94
870.164	52.64
870.598	48.34
871.031	33.44
871.465	34.54
871.899	29.54
872.333	24.04
872.766	30.14
873.2	22.34
873.634	29.34
874.067	20.94
874.501	25.34
874.935	27.54
875.368	29.54
875.802	25.44
876.235	28.04
876.669	24.84
877.102	27.84
877.535	28.24
877.969	22.84
878.402	19.64
878.836	15.14
879.269	25.24
879.702	23.24
880.135	21.64
880.569	21.44
881.002	19.24
881.435	19.14
881.868	20.74
882.301	24.64
882.734	14.84
883.167	28.34
883.601	14.44
884.034	18.94
884.467	13.24
884.899	18.24
885.332	14.74
885.765	10.14
886.198	16.44
886.631	18.44
887.064	19.64
887.497	22.94
887.929	26.34
888.362	11.04
888.795	6.34
889.228	18.34
889.66	17.34
890.093	19.84
890.526	12.04
890.958	20.34
891.391	15.44
891.823	22.74
892.256	17.14
892.688	12.74
893.121	16.64
893.553	13.64
893.985	19.44
894.418	17.44
894.85	10.84
895.282	15.24
895.715	17.84
896.147	21.44
896.579	17.84
897.011	13.14
897.444	14.54
897.876	11.34
898.308	20.44
898.74	16.24
899.172	11.14
899.604	21.24
900.036	21.94
900.468	15.54
900.9	16.84
901.332	19.64
901.764	11.84
902.196	15.94
902.628	19.24
903.06	14.74
903.491	29.74
903.923	24.14
904.355	24.74
904.787	28.14
905.218	17.54
905.65	22.64
906.082	11.54
906.513	10.24
906.945	14.34
907.376	12.54
907.808	17.04
908.239	27.64
908.671	17.84
909.102	19.04
909.534	27.14
909.965	47.54
910.397	95.64
910.828	310.84
911.259	472.64
911.691	212.04
912.122	108.54
912.553	49.54
912.984	33.74
913.415	26.94
913.847	19.74
914.278	18.14
914.709	15.14
915.14	14.04
915.571	20.34
916.002	8.04
916.433	20.14
916.864	16.94
917.295	11.94
917.726	19.74
918.157	18.44
918.587	30.64
919.018	18.04
919.449	17.94
919.88	23.54
920.311	25.64
920.741	45.74
921.172	168.74
921.603	149.64
922.033	72.64
922.464	45.34
922.895	22.44
923.325	23.04
923.756	13.84
924.186	16.54
924.617	23.74
925.047	50.24
925.478	55.04
925.908	44.04
926.338	24.34
926.769	18.54
927.199	18.34
927.629	16.44
928.06	13.54
928.49	11.14
928.92	12.04
929.35	14.14
929.78	12.74
930.21	11.14
930.641	12.64
931.071	4.74
931.501	2.24
931.931	6.84
932.361	5.84
932.791	-0.56
933.221	5.24
933.651	10.34
934.08	19.24
934.51	30.14
934.94	4.84
935.37	6.14
935.8	5.34
936.229	5.44
936.659	11.04
937.089	4.14
937.519	13.64
937.948	17.74
938.378	16.44
938.807	7.34
939.237	2.54
939.666	6.74
940.096	-4.36
940.525	3.14
940.955	-1.26
941.384	4.74
941.814	-6.96
942.243	-3.76
942.672	1.84
943.102	-5.66
943.531	-1.86
943.96	1.94
944.39	5.24
944.819	-0.26
945.248	6.54
945.677	0.34
946.106	6.94
946.535	11.64
946.964	1.14
947.393	1.74
947.822	3.84
948.251	-7.96
948.68	6.44
949.109	9.34
949.538	4.14
949.967	-3.66
950.396	2.54
950.825	-1.16
951.254	-2.26
951.682	-2.76
952.111	4.34
952.54	1.44
952.969	-2.16
953.397	-7.56
953.826	4.44
954.254	-3.16
954.683	-0.76
955.112	-4.86
955.54	3.64
955.969	5.54
956.397	-5.16
956.826	-4.06
957.254	-1.06
957.682	0.84
958.111	0.34
958.539	2.84
958.967	0.04
959.396	-0.66
959.824	4.14
960.252	-2.06
960.68	-5.06
961.109	-3.56
961.537	-2.46
961.965	-3.96
962.393	0.14
962.821	-5.26
963.249	-1.96
963.677	0.94
964.105	6.74
964.533	34.94
964.961	44.84
965.389	19.44
965.817	4.64
966.245	3.74
966.672	-0.76
967.1	-5.06
967.528	-5.16
967.956	-3.06
968.383	1.24
968.811	-8.66
969.239	-5.16
969.666	-13.66
970.094	1.64
970.522	-0.96
970.949	3.34
971.377	-5.26
971.804	-2.96
972.232	6.44
972.659	-3.26
973.087	-4.46
973.514	-1.06
973.941	-7.66
974.369	3.04
974.796	2.74
975.223	-2.36
975.651	2.34
976.078	5.94
976.505	-7.06
976.932	4.34
977.359	10.74
977.786	10.54
978.214	-0.46
978.641	-2.46
979.068	-8.66
979.495	-3.46
979.922	-0.16
980.349	-9.46
980.776	-1.56
981.202	1.44
981.629	6.34
982.056	5.64
982.483	-3.56
982.91	2.14
983.337	-6.86
983.763	3.04
984.19	-2.66
984.617	-1.26
985.043	-8.86
985.47	-3.16
985.897	-8.56
986.323	-6.06
986.75	-4.06
987.176	-0.56
987.603	-3.16
988.029	-1.46
988.456	-4.26
988.882	-0.56
989.308	-1.46
989.735	-5.76
990.161	-1.36
990.587	-5.16
991.014	-5.36
991.44	6.54
991.866	-9.96
992.292	-3.26
992.719	-7.46
993.145	0.14
993.571	-8.66
993.997	-2.46
994.423	1.34
994.849	-2.66
995.275	4.24
995.701	1.24
996.127	-3.06
996.553	3.24
996.979	-2.76
997.405	-4.56
997.83	-3.06
998.256	-6.46
998.682	-1.96
999.108	-12.46
999.534	-3.46
999.959	-3.26
1000.385	-3.36
1000.811	-1.76
1001.236	-8.86
1001.662	-7.56
1002.087	-11.26
1002.513	4.24
1002.938	-1.26
1003.364	-3.86
1003.789	-0.86
1004.215	0.74
1004.64	-3.06
1005.066	-0.26
1005.491	-0.46
1005.916	-4.36
1006.342	-6.36
1006.767	-10.76
1007.192	1.14
1007.617	-4.76
1008.042	-3.86
1008.468	-5.66
1008.893	-4.96
1009.318	-1.86
1009.743	4.14
1010.168	3.94
1010.593	0.64
1011.018	-5.36
1011.443	-2.06
1011.868	-3.76
1012.293	-5.76
1012.718	-11.46
1013.143	0.94
1013.567	-2.26
1013.992	-4.96
1014.417	-7.66
1014.842	-1.56
1015.267	-8.06
1015.691	-6.56
1016.116	2.94
1016.541	-5.16
1016.965	2.04
1017.39	0.74
1017.814	-8.76
1018.239	-7.56
1018.663	-12.26
1019.088	-6.36
1019.512	-0.86
1019.937	-2.46
1020.361	-9.76
1020.785	-12.06
1021.21	-3.46
1021.634	1.04
1022.058	-5.16
1022.483	0.74
1022.907	-5.46
1023.331	-2.06
1023.755	0.14
1024.179	1.54
1024.604	-5.26
1025.028	-7.66
1025.452	-10.26
1025.876	-8.86
1026.3	-5.06
1026.724	-10.86
1027.148	-4.16
1027.572	-5.16
1027.996	-10.26
1028.42	1.54
1028.843	-8.26
1029.267	-8.86
1029.691	-3.26
1030.115	-4.06
1030.539	-8.56
1030.962	-4.56
1031.386	-8.96
1031.81	-4.46
1032.233	-4.56
1032.657	-1.96
1033.08	-1.96
1033.504	-8.16
1033.927	-1.06
1034.351	-3.56
1034.774	-5.76
1035.198	-2.36
1035.621	-8.56
1036.045	-4.06
1036.468	-3.86
1036.891	-8.76
1037.315	-10.46
1037.738	-7.56
1038.161	1.34
1038.584	-3.86
1039.008	-5.56
1039.431	-4.36
1039.854	1.44
1040.277	-10.96
1040.7	-15.66
1041.123	-0.36
1041.546	-9.16
1041.969	-7.16
1042.392	-10.66
1042.815	-4.46
1043.238	0.54
1043.661	3.24
1044.084	-8.36
1044.507	-3.76
1044.93	-8.26
1045.352	-10.16
1045.775	-6.16
1046.198	-5.26
1046.621	-2.56
1047.043	-0.46
1047.466	8.04
1047.889	-8.16
1048.311	-8.66
1048.734	-4.96
1049.156	-5.76
1049.579	-5.46
1050.001	-6.86
1050.424	-8.46
1050.846	-10.46
1051.269	0.34
1051.691	-7.96
1052.113	-7.56
1052.536	-9.66
1052.958	-1.86
1053.38	-6.46
1053.802	-13.26
1054.225	2.54
1054.647	-12.36
1055.069	-9.36
1055.491	-0.76
1055.913	-0.36
1056.335	-1.66
1056.757	-6.76
1057.179	-10.76
1057.601	-0.56
1058.023	-3.96
1058.445	-5.86
1058.867	-7.16
1059.289	-5.26
1059.711	-7.26
1060.133	-4.46
1060.555	-9.76
1060.976	-5.36
1061.398	-6.66
1061.82	-11.66
1062.241	-12.06
1062.663	-12.46
1063.085	-8.26
1063.506	-2.36
1063.928	-8.06
1064.35	-2.66
1064.771	-8.96
1065.193	-6.06
1065.614	-13.06
1066.035	-2.66
1066.457	-7.46
1066.878	-6.06
1067.3	-6.06
1067.721	-3.06
1068.142	-3.56
1068.564	-6.16
1068.985	-5.76
1069.406	-1.86
1069.827	-7.66
1070.248	-3.96
1070.67	-13.06
1071.091	-3.06
1071.512	-11.66
1071.933	-7.66
1072.354	-7.36
1072.775	-6.36
1073.196	-9.06
1073.617	-2.36
1074.038	-11.36
1074.459	-3.66
1074.88	-9.06
1075.3	-5.16
1075.721	-9.56
1076.142	-0.76
1076.563	-1.76
1076.983	-8.76
1077.404	-7.76
1077.825	-9.36
1078.246	-3.26
1078.666	-11.26
1079.087	-2.26
1079.507	-3.56
1079.928	-2.86
1080.348	-3.26
1080.769	-3.96
1081.189	4.44
1081.61	-7.36
1082.03	-9.66
1082.451	-6.66
1082.871	-2.56
1083.291	-8.26
1083.711	-5.26
1084.132	-6.56
1084.552	-11.06
1084.972	-6.76
1085.392	-5.66
1085.813	-18.16
1086.233	-7.96
1086.653	-9.56
1087.073	-8.26
1087.493	-9.06
1087.913	-2.36
1088.333	-8.46
1088.753	-3.76
1089.173	-0.96
1089.593	-3.96
1090.013	2.74
1090.433	-0.96
1090.852	-4.16
1091.272	-1.56
1091.692	-0.86
1092.112	-9.46
1092.531	-11.56
1092.951	-16.86
1093.371	-8.46
1093.79	-2.16
1094.21	-6.06
1094.63	-3.86
1095.049	-6.96
1095.469	-5.76
1095.888	-6.36
1096.308	-3.26
1096.727	3.64
1097.146	-6.76
1097.566	3.04
1097.985	-5.26
1098.405	-4.96
1098.824	-13.06
1099.243	-7.86
1099.662	-10.76
1100.082	1.84
1100.501	-3.36
1100.92	-8.36
1101.339	-3.36
1101.758	-8.76
