Data from 20171114-ORNL-Ar_H_NY_Subt18_08-04-28-541.txt Node
Date: Tue Nov 14 08:04:28 EST 2017
User: Ender
Spectrometer: HR+D1039
Trigger mode: 0
Integration Time (sec): 2.730000E-2
Scans to average: 10
Electric dark correction enabled: true
Nonlinearity correction enabled: false
Boxcar width: 0
XAxis mode: Wavelengths
Number of Pixels in Spectrum: 2048
>>>>>Begin Spectral Data<<<<<
187.836	-4.86
188.309	-4.86
188.782	-4.86
189.255	4.04
189.728	-1.06
190.201	3.34
190.674	3.44
191.147	2.14
191.619	-7.06
192.092	1.04
192.565	3.44
193.038	0.64
193.511	-2.86
193.984	-2.66
194.456	-2.36
194.929	3.54
195.402	-1.96
195.874	1.24
196.347	1.74
196.82	-5.06
197.292	7.54
197.765	1.94
198.237	-2.66
198.71	1.64
199.182	-1.66
199.655	4.34
200.127	3.14
200.6	6.04
201.072	-5.46
201.544	-6.06
202.017	-2.56
202.489	5.94
202.961	0.44
203.433	-7.16
203.906	-10.26
204.378	-6.36
204.85	-5.06
205.322	-10.16
205.794	-2.56
206.266	-5.46
206.739	-12.36
207.211	4.04
207.683	-4.56
208.155	-5.96
208.627	-3.16
209.099	-2.66
209.57	-13.26
210.042	-2.76
210.514	-2.96
210.986	4.44
211.458	-10.16
211.93	-1.46
212.402	1.54
212.873	-7.56
213.345	-11.16
213.817	-7.96
214.288	-3.46
214.76	-7.96
215.232	1.64
215.703	-2.86
216.175	2.04
216.646	-9.16
217.118	-4.86
217.589	-3.46
218.061	-0.66
218.532	-2.46
219.004	2.34
219.475	4.04
219.946	-4.96
220.418	-2.16
220.889	5.14
221.36	-0.16
221.832	2.04
222.303	-3.26
222.774	3.24
223.245	-7.66
223.717	-1.56
224.188	3.04
224.659	-8.06
225.13	-8.06
225.601	2.84
226.072	-1.46
226.543	-0.36
227.014	2.04
227.485	0.24
227.956	-4.46
228.427	-4.76
228.898	4.14
229.369	-0.46
229.839	-1.06
230.31	-5.76
230.781	5.34
231.252	3.14
231.722	-2.26
232.193	3.74
232.664	1.54
233.135	-3.26
233.605	7.04
234.076	-0.16
234.546	1.74
235.017	3.34
235.487	1.04
235.958	1.84
236.428	0.84
236.899	1.54
237.369	4.24
237.84	-3.46
238.31	4.14
238.78	9.24
239.251	0.84
239.721	4.84
240.191	1.94
240.662	-0.96
241.132	4.84
241.602	0.34
242.072	2.64
242.542	0.24
243.013	0.14
243.483	4.54
243.953	3.84
244.423	4.94
244.893	2.44
245.363	4.64
245.833	4.34
246.303	2.14
246.773	8.74
247.243	0.74
247.712	9.24
248.182	7.84
248.652	10.24
249.122	2.84
249.592	10.14
250.061	23.44
250.531	40.64
251.001	20.04
251.471	28.34
251.94	20.04
252.41	8.24
252.879	-1.06
253.349	14.64
253.818	14.14
254.288	7.34
254.757	5.04
255.227	3.14
255.696	2.84
256.166	6.24
256.635	7.84
257.105	12.84
257.574	4.74
258.043	7.54
258.513	12.74
258.982	20.64
259.451	11.74
259.92	13.74
260.389	12.54
260.859	15.44
261.328	10.54
261.797	18.84
262.266	12.14
262.735	17.94
263.204	10.74
263.673	2.54
264.142	8.24
264.611	-3.76
265.08	1.94
265.549	4.44
266.018	6.74
266.487	1.84
266.955	7.14
267.424	2.04
267.893	5.64
268.362	5.64
268.83	10.34
269.299	19.64
269.768	6.94
270.236	7.84
270.705	9.94
271.174	8.54
271.642	7.34
272.111	7.94
272.579	17.64
273.048	25.84
273.516	28.34
273.985	26.44
274.453	30.84
274.922	28.44
275.39	18.64
275.858	2.24
276.327	17.14
276.795	18.44
277.263	9.04
277.731	34.44
278.2	53.14
278.668	58.54
279.136	48.54
279.604	21.14
280.072	14.94
280.54	13.24
281.008	11.54
281.477	23.24
281.945	15.04
282.413	22.54
282.881	18.64
283.348	12.14
283.816	14.64
284.284	15.94
284.752	24.24
285.22	18.44
285.688	14.54
286.156	22.74
286.623	51.54
287.091	57.74
287.559	26.74
288.026	21.54
288.494	15.14
288.962	4.54
289.429	11.74
289.897	19.94
290.364	17.54
290.832	17.44
291.3	19.04
291.767	18.14
292.234	22.54
292.702	16.14
293.169	20.74
293.637	23.94
294.104	21.64
294.571	7.84
295.039	19.74
295.506	13.94
295.973	20.94
296.44	22.54
296.908	20.14
297.375	24.94
297.842	20.54
298.309	22.54
298.776	13.04
299.243	24.24
299.71	12.94
300.177	20.64
300.644	21.54
301.111	20.34
301.578	27.64
302.045	21.24
302.512	24.64
302.979	22.24
303.446	26.54
303.913	20.94
304.379	20.14
304.846	29.64
305.313	23.44
305.78	23.54
306.246	23.84
306.713	32.64
307.18	22.04
307.646	28.54
308.113	25.34
308.579	25.44
309.046	28.54
309.512	24.64
309.979	16.24
310.445	21.64
310.912	25.84
311.378	27.04
311.845	33.64
312.311	31.94
312.777	32.04
313.244	31.14
313.71	37.64
314.176	35.54
314.642	36.14
315.109	29.14
315.575	29.84
316.041	41.54
316.507	35.54
316.973	40.94
317.439	34.64
317.905	39.44
318.371	36.74
318.837	33.04
319.303	37.54
319.769	41.64
320.235	33.94
320.701	39.44
321.167	35.94
321.633	33.84
322.099	41.54
322.564	45.04
323.03	35.44
323.496	39.64
323.962	41.64
324.427	38.44
324.893	38.44
325.359	35.24
325.824	37.04
326.29	37.24
326.755	40.54
327.221	45.84
327.686	44.64
328.152	38.94
328.617	46.64
329.083	49.94
329.548	45.84
330.014	40.94
330.479	39.14
330.944	45.04
331.41	42.44
331.875	43.74
332.34	48.24
332.805	44.34
333.271	47.44
333.736	38.44
334.201	52.54
334.666	54.64
335.131	57.64
335.596	47.74
336.061	48.34
336.526	34.44
336.991	47.54
337.456	51.84
337.921	49.64
338.386	48.14
338.851	43.04
339.316	44.54
339.781	46.94
340.246	50.84
340.711	48.84
341.175	52.94
341.64	47.04
342.105	51.04
342.569	52.74
343.034	57.54
343.499	55.44
343.963	50.24
344.428	60.34
344.893	52.64
345.357	57.24
345.822	62.24
346.286	66.64
346.751	70.14
347.215	66.94
347.679	74.14
348.144	92.04
348.608	82.24
349.073	67.84
349.537	78.94
350.001	75.64
350.465	76.84
350.93	79.84
351.394	77.94
351.858	64.64
352.322	83.24
352.786	81.84
353.25	97.14
353.715	107.74
354.179	97.04
354.643	111.44
355.107	116.04
355.571	102.94
356.035	95.34
356.498	105.74
356.962	112.94
357.426	118.14
357.89	109.14
358.354	81.34
358.818	80.24
359.281	71.04
359.745	72.14
360.209	68.84
360.673	72.34
361.136	72.74
361.6	79.14
362.064	78.84
362.527	78.04
362.991	79.94
363.454	72.44
363.918	73.54
364.381	69.94
364.845	76.74
365.308	79.44
365.772	82.24
366.235	84.74
366.698	83.44
367.162	84.34
367.625	83.24
368.088	80.64
368.552	74.14
369.015	86.14
369.478	86.44
369.941	99.54
370.404	90.24
370.867	96.34
371.331	98.74
371.794	104.64
372.257	96.94
372.72	110.34
373.183	99.44
373.646	100.34
374.109	95.64
374.572	104.64
375.035	99.44
375.497	97.04
375.96	96.54
376.423	97.44
376.886	101.74
377.349	108.34
377.811	94.24
378.274	100.94
378.737	90.94
379.199	104.34
379.662	105.94
380.125	102.94
380.587	110.54
381.05	110.34
381.512	119.84
381.975	122.44
382.437	116.24
382.9	118.54
383.362	118.64
383.825	127.14
384.287	136.84
384.75	128.44
385.212	120.34
385.674	125.44
386.136	124.44
386.599	113.34
387.061	115.74
387.523	122.04
387.985	121.14
388.447	132.04
388.91	130.24
389.372	145.04
389.834	137.74
390.296	134.14
390.758	146.34
391.22	154.24
391.682	181.34
392.144	258.44
392.606	209.04
393.068	141.34
393.529	151.64
393.991	140.74
394.453	136.74
394.915	148.94
395.377	164.04
395.838	195.74
396.3	139.94
396.762	134.34
397.224	116.94
397.685	116.24
398.147	117.84
398.608	117.54
399.07	116.54
399.531	122.14
399.993	129.74
400.454	134.44
400.916	135.64
401.377	128.04
401.839	140.94
402.3	138.64
402.762	154.24
403.223	169.74
403.684	158.64
404.145	147.94
404.607	146.14
405.068	153.54
405.529	157.94
405.99	175.44
406.451	158.04
406.913	151.14
407.374	151.44
407.835	145.64
408.296	159.54
408.757	161.74
409.218	164.44
409.679	165.84
410.14	166.14
410.601	162.44
411.062	174.94
411.522	172.84
411.983	176.44
412.444	163.04
412.905	166.14
413.366	157.34
413.826	178.24
414.287	201.24
414.748	238.84
415.208	224.84
415.669	194.24
416.13	188.24
416.59	189.64
417.051	202.14
417.511	199.74
417.972	216.74
418.432	227.14
418.893	261.54
419.353	224.14
419.814	180.54
420.274	170.34
420.734	168.04
421.195	182.64
421.655	175.74
422.115	175.64
422.576	176.34
423.036	182.04
423.496	188.64
423.956	194.94
424.416	212.04
424.876	248.74
425.336	234.54
425.797	237.54
426.257	231.64
426.717	221.54
427.177	211.34
427.637	204.24
428.097	211.04
428.556	224.44
429.016	243.14
429.476	233.94
429.936	244.24
430.396	252.24
430.856	264.44
431.315	280.04
431.775	307.64
432.235	337.24
432.694	316.04
433.154	328.94
433.614	348.14
434.073	311.64
434.533	258.84
434.993	237.44
435.452	254.04
435.912	266.94
436.371	269.44
436.83	256.84
437.29	243.24
437.749	225.44
438.209	222.54
438.668	249.84
439.127	255.04
439.587	237.64
440.046	230.44
440.505	241.44
440.964	248.74
441.424	288.94
441.883	279.14
442.342	232.44
442.801	202.84
443.26	198.74
443.719	207.44
444.178	195.84
444.637	196.74
445.096	204.84
445.555	204.14
446.014	199.54
446.473	198.44
446.932	215.04
447.391	201.94
447.849	205.04
448.308	199.84
448.767	201.24
449.226	211.44
449.685	210.94
450.143	228.04
450.602	220.14
451.061	204.84
451.519	213.94
451.978	208.14
452.436	212.14
452.895	213.54
453.353	231.84
453.812	215.34
454.27	219.24
454.729	223.14
455.187	221.24
455.646	220.34
456.104	227.24
456.562	227.94
457.021	238.14
457.479	227.34
457.937	246.94
458.395	230.24
458.854	222.34
459.312	237.94
459.77	245.04
460.228	226.34
460.686	217.24
461.144	229.04
461.602	224.24
462.06	220.74
462.518	230.44
462.976	226.14
463.434	236.14
463.892	239.14
464.35	253.94
464.808	260.74
465.266	238.04
465.724	244.94
466.181	245.34
466.639	252.54
467.097	263.44
467.555	276.74
468.012	277.84
468.47	285.14
468.928	291.14
469.385	310.94
469.843	316.54
470.3	324.64
470.758	331.54
471.215	349.94
471.673	352.54
472.13	366.04
472.588	365.34
473.045	335.04
473.503	338.54
473.96	362.24
474.417	368.14
474.875	388.44
475.332	431.84
475.789	420.74
476.246	420.84
476.704	449.74
477.161	460.94
477.618	470.54
478.075	500.84
478.532	555.84
478.989	618.24
479.446	721.34
479.903	702.64
480.36	743.14
480.817	789.34
481.274	878.24
481.731	986.44
482.188	1058.24
482.645	1192.44
483.102	1295.04
483.558	1417.74
484.015	1461.64
484.472	1453.24
484.929	1391.64
485.385	1353.34
485.842	1316.74
486.299	1256.14
486.755	1183.14
487.212	987.94
487.668	848.44
488.125	779.24
488.582	721.34
489.038	688.84
489.494	653.84
489.951	632.44
490.407	609.34
490.864	582.04
491.32	582.14
491.776	578.94
492.233	594.74
492.689	564.34
493.145	548.74
493.602	553.24
494.058	562.14
494.514	555.74
494.97	576.24
495.426	594.14
495.882	567.34
496.338	568.44
496.794	581.44
497.251	560.54
497.707	579.54
498.163	576.64
498.618	585.04
499.074	589.84
499.53	618.44
499.986	614.54
500.442	587.94
500.898	575.04
501.354	569.24
501.809	575.44
502.265	583.14
502.721	601.94
503.177	608.04
503.632	605.94
504.088	608.24
504.543	639.04
504.999	637.64
505.455	598.74
505.91	580.74
506.366	572.54
506.821	576.54
507.277	571.64
507.732	573.24
508.187	568.84
508.643	581.14
509.098	564.94
509.553	595.54
510.009	602.84
510.464	609.04
510.919	627.44
511.375	624.74
511.83	652.04
512.285	660.04
512.74	686.74
513.195	705.34
513.65	707.54
514.105	704.94
514.56	710.34
515.015	725.74
515.47	743.34
515.925	727.64
516.38	718.44
516.835	730.64
517.29	713.84
517.745	707.84
518.2	692.74
518.655	682.24
519.109	676.84
519.564	672.64
520.019	669.34
520.474	665.54
520.928	660.74
521.383	653.54
521.838	648.14
522.292	644.04
522.747	645.64
523.201	638.74
523.656	626.84
524.11	627.64
524.565	627.04
525.019	629.64
525.474	628.04
525.928	631.44
526.382	623.34
526.837	629.04
527.291	643.74
527.745	638.44
528.2	642.74
528.654	628.14
529.108	622.04
529.562	626.64
530.016	631.04
530.47	627.54
530.925	622.24
531.379	626.04
531.833	637.14
532.287	641.34
532.741	634.34
533.195	645.14
533.649	640.04
534.103	658.84
534.556	646.44
535.01	654.94
535.464	630.54
535.918	653.84
536.372	660.84
536.826	656.14
537.279	644.24
537.733	640.84
538.187	637.84
538.64	644.14
539.094	636.84
539.548	660.04
540.001	648.64
540.455	649.24
540.908	668.04
541.362	665.34
541.815	669.74
542.269	685.64
542.722	685.04
543.175	695.64
543.629	695.34
544.082	717.74
544.536	715.64
544.989	707.74
545.442	717.14
545.895	715.54
546.349	704.44
546.802	716.44
547.255	706.84
547.708	722.34
548.161	730.14
548.614	736.04
549.067	743.54
549.52	737.14
549.973	730.54
550.426	720.24
550.879	715.84
551.332	714.34
551.785	724.84
552.238	721.54
552.691	731.94
553.144	741.14
553.596	758.64
554.049	780.14
554.502	807.04
554.955	819.84
555.407	808.44
555.86	820.74
556.313	803.84
556.765	797.64
557.218	798.74
557.67	800.74
558.123	786.64
558.576	785.94
559.028	782.14
559.48	787.34
559.933	775.44
560.385	747.34
560.838	724.54
561.29	699.24
561.742	695.54
562.195	678.44
562.647	684.74
563.099	689.24
563.551	689.24
564.004	689.14
564.456	687.44
564.908	682.44
565.36	669.84
565.812	649.84
566.264	636.74
566.716	641.84
567.168	634.44
567.62	640.94
568.072	624.44
568.524	613.94
568.976	600.84
569.428	594.64
569.88	587.34
570.332	603.04
570.784	595.74
571.235	597.64
571.687	614.44
572.139	619.44
572.59	629.04
573.042	632.64
573.494	634.44
573.945	626.14
574.397	608.34
574.849	614.84
575.3	613.94
575.752	602.14
576.203	599.84
576.655	604.84
577.106	592.74
577.557	588.64
578.009	597.94
578.46	587.24
578.912	580.64
579.363	584.64
579.814	590.84
580.265	586.84
580.717	585.14
581.168	586.44
581.619	602.64
582.07	604.34
582.521	590.64
582.972	589.84
583.423	602.94
583.875	598.14
584.326	614.54
584.777	652.64
585.227	722.64
585.678	796.54
586.129	880.24
586.58	933.54
587.031	1022.54
587.482	1160.84
587.933	1331.84
588.384	1137.44
588.834	852.14
589.285	699.14
589.736	681.44
590.186	676.04
590.637	662.84
591.088	651.14
591.538	637.54
591.989	633.04
592.439	630.74
592.89	626.04
593.34	621.64
593.791	615.44
594.241	615.24
594.692	623.24
595.142	611.84
595.593	608.64
596.043	611.34
596.493	632.24
596.943	624.44
597.394	623.94
597.844	617.04
598.294	638.14
598.744	652.74
599.195	665.84
599.645	710.34
600.095	742.44
600.545	789.14
600.995	837.84
601.445	888.84
601.895	937.34
602.345	987.14
602.795	961.54
603.245	933.04
603.695	882.84
604.145	831.24
604.594	788.54
605.044	741.24
605.494	692.74
605.944	658.14
606.393	638.54
606.843	621.04
607.293	631.84
607.743	632.34
608.192	637.24
608.642	656.04
609.091	648.84
609.541	657.74
609.99	658.24
610.44	657.44
610.889	617.74
611.339	597.74
611.788	586.84
612.238	609.74
612.687	612.94
613.136	625.14
613.586	635.74
614.035	626.54
614.484	641.44
614.933	651.44
615.383	647.84
615.832	628.74
616.281	614.64
616.73	589.84
617.179	573.94
617.628	558.54
618.077	544.94
618.526	531.04
618.975	523.64
619.424	525.64
619.873	528.74
620.322	530.34
620.771	519.54
621.22	516.84
621.669	509.54
622.118	499.74
622.567	494.44
623.015	491.24
623.464	484.24
623.913	478.74
624.361	471.94
624.81	471.64
625.259	469.94
625.707	476.44
626.156	472.04
626.604	471.64
627.053	479.44
627.501	475.84
627.95	481.24
628.398	493.94
628.847	481.04
629.295	482.24
629.744	488.94
630.192	483.74
630.64	481.94
631.089	480.64
631.537	492.94
631.985	494.44
632.433	500.64
632.881	498.24
633.33	561.24
633.778	535.14
634.226	473.84
634.674	490.94
635.122	494.94
635.57	508.24
636.018	516.14
636.466	489.14
636.914	471.54
637.362	490.14
637.81	494.04
638.258	488.34
638.705	486.44
639.153	520.14
639.601	513.14
640.049	543.14
640.497	567.34
640.944	590.14
641.392	544.24
641.84	520.74
642.287	488.54
642.735	475.84
643.182	473.54
643.63	484.34
644.078	486.34
644.525	504.24
644.973	498.44
645.42	503.44
645.867	519.84
646.315	537.74
646.762	550.14
647.21	585.94
647.657	590.04
648.104	631.84
648.551	642.04
648.999	697.14
649.446	763.34
649.893	834.34
650.34	965.24
650.787	1154.54
651.234	1433.74
651.682	1858.44
652.129	2514.24
652.576	3640.74
653.023	5361.34
653.47	7437.74
653.917	9418.94
654.363	11056.74
654.81	12416.34
655.257	11802.94
655.704	7642.84
656.151	4484.34
656.598	2903.84
657.044	2060.24
657.491	1578.84
657.938	1260.14
658.385	1053.94
658.831	909.44
659.278	816.44
659.724	714.34
660.171	665.34
660.618	609.34
661.064	568.04
661.511	557.14
661.957	538.44
662.404	525.24
662.85	534.04
663.296	510.44
663.743	468.94
664.189	450.54
664.635	446.04
665.082	439.84
665.528	444.74
665.974	426.74
666.42	427.34
666.867	423.64
667.313	404.84
667.759	395.94
668.205	395.84
668.651	398.14
669.097	403.14
669.543	422.74
669.989	387.34
670.435	378.74
670.881	365.24
671.327	371.74
671.773	391.54
672.219	413.74
672.665	451.84
673.11	480.24
673.556	521.14
674.002	563.64
674.448	546.34
674.893	455.14
675.339	403.74
675.785	365.04
676.23	352.24
676.676	327.04
677.122	319.94
677.567	310.14
678.013	302.14
678.458	292.64
678.904	300.14
679.349	280.44
679.794	287.34
680.24	294.14
680.685	286.94
681.131	284.84
681.576	289.74
682.021	293.34
682.466	295.54
682.912	288.74
683.357	289.24
683.802	309.94
684.247	335.34
684.692	377.54
685.137	404.24
685.583	442.64
686.028	470.24
686.473	435.24
686.918	371.54
687.363	349.94
687.807	321.14
688.252	300.94
688.697	294.64
689.142	275.34
689.587	272.84
690.032	262.14
690.477	278.34
690.921	278.24
691.366	311.14
691.811	334.24
692.255	358.84
692.7	384.34
693.145	416.04
693.589	559.94
694.034	900.64
694.478	1246.54
694.923	1440.84
695.367	1925.84
695.812	997.84
696.256	422.14
696.701	302.84
697.145	273.74
697.59	270.34
698.034	264.04
698.478	274.94
698.922	265.04
699.367	276.84
699.811	285.44
700.255	286.74
700.699	319.04
701.143	345.34
701.588	397.34
702.032	428.14
702.476	421.64
702.92	407.54
703.364	407.84
703.808	511.84
704.252	818.24
704.696	1172.14
705.14	1394.34
705.584	1793.54
706.027	880.04
706.471	437.14
706.915	322.54
707.359	286.14
707.803	259.44
708.246	256.24
708.69	259.84
709.134	255.24
709.577	256.44
710.021	262.84
710.465	255.14
710.908	235.74
711.352	236.94
711.795	250.44
712.239	290.64
712.682	315.24
713.126	340.24
713.569	389.44
714.012	310.54
714.456	260.54
714.899	250.74
715.342	223.74
715.786	210.24
716.229	213.44
716.672	206.94
717.115	208.34
717.558	204.54
718.002	202.34
718.445	212.54
718.888	235.44
719.331	244.94
719.774	252.64
720.217	252.14
720.66	234.04
721.103	217.84
721.546	201.64
721.989	203.94
722.432	190.74
722.874	199.74
723.317	188.74
723.76	192.34
724.203	213.64
724.645	253.44
725.088	354.44
725.531	460.24
725.974	538.84
726.416	454.94
726.859	247.14
727.301	201.54
727.744	196.44
728.187	191.84
728.629	198.44
729.071	203.54
729.514	215.34
729.956	221.94
730.399	227.84
730.841	234.64
731.283	225.84
731.726	213.84
732.168	204.74
732.61	211.34
733.053	233.74
733.495	254.44
733.937	284.24
734.379	328.64
734.821	354.54
735.263	435.74
735.705	658.34
736.148	1253.44
736.59	2097.94
737.032	2579.34
737.474	2087.04
737.916	673.74
738.357	355.14
738.799	263.04
739.241	245.64
739.683	226.14
740.125	232.74
740.567	237.44
741.008	269.94
741.45	253.14
741.892	263.64
742.334	286.24
742.775	304.44
743.217	284.64
743.658	223.74
744.1	210.04
744.542	210.94
744.983	254.54
745.425	288.94
745.866	285.14
746.307	231.44
746.749	231.64
747.19	265.04
747.632	368.34
748.073	672.14
748.514	1476.94
748.956	2349.54
749.397	2919.64
749.838	2437.94
750.279	2509.64
750.72	1251.64
751.162	449.94
751.603	265.84
752.044	206.74
752.485	184.84
752.926	174.54
753.367	161.64
753.808	155.44
754.249	154.14
754.69	148.64
755.131	149.44
755.572	149.94
756.013	147.64
756.453	156.84
756.894	154.64
757.335	152.44
757.776	162.94
758.216	155.24
758.657	157.54
759.098	163.14
759.538	186.64
759.979	211.54
760.42	299.14
760.86	557.34
761.301	1428.44
761.741	3565.54
762.182	5523.54
762.622	3863.34
763.063	1094.74
763.503	445.34
763.943	283.24
764.384	273.54
764.824	326.14
765.264	355.64
765.705	251.94
766.145	176.14
766.585	144.94
767.025	143.84
767.465	148.84
767.906	195.54
768.346	253.94
768.786	286.84
769.226	214.14
769.666	257.14
770.106	481.94
770.546	1233.24
770.986	2204.84
771.426	2020.44
771.866	656.54
772.306	268.34
772.745	169.94
773.185	146.64
773.625	142.04
774.065	128.44
774.505	161.94
774.944	239.84
775.384	544.34
775.824	1023.64
776.263	1004.24
776.703	428.24
777.142	183.84
777.582	131.44
778.021	112.64
778.461	114.74
778.9	110.34
779.34	107.54
779.779	97.14
780.219	90.84
780.658	84.84
781.097	87.94
781.537	95.34
781.976	83.54
782.415	89.94
782.855	87.14
783.294	86.44
783.733	88.64
784.172	92.24
784.611	86.64
785.05	93.24
785.489	88.84
785.928	95.54
786.367	105.94
786.806	97.24
787.245	107.54
787.684	108.84
788.123	119.64
788.562	110.04
789.001	104.54
789.44	99.64
789.879	95.74
790.317	100.94
790.756	106.74
791.195	109.54
791.634	111.14
792.072	162.04
792.511	291.24
792.95	793.44
793.388	1769.04
793.827	1665.34
794.265	573.94
794.704	226.84
795.142	157.04
795.581	126.34
796.019	110.54
796.458	106.14
796.896	98.34
797.334	114.24
797.773	130.54
798.211	177.54
798.649	339.84
799.087	818.84
799.526	1298.14
799.964	1647.34
800.402	1713.44
800.84	626.74
801.278	244.24
801.716	156.64
802.154	125.04
802.592	113.34
803.03	113.34
803.468	103.54
803.906	118.34
804.344	120.44
804.782	115.64
805.22	107.54
805.658	108.24
806.096	124.74
806.533	127.84
806.971	147.54
807.409	174.84
807.847	249.14
808.284	513.34
808.722	1491.44
809.16	2750.34
809.597	2531.74
810.035	4484.94
810.472	5007.24
810.91	1767.74
811.347	662.44
811.785	330.54
812.222	218.04
812.66	161.84
813.097	137.94
813.535	117.84
813.972	106.04
814.409	96.94
814.846	84.04
815.284	88.54
815.721	85.34
816.158	88.84
816.595	96.34
817.032	146.84
817.47	169.14
817.907	148.24
818.344	128.44
818.781	94.04
819.218	78.14
819.655	97.34
820.092	155.74
820.529	182.34
820.966	149.64
821.403	106.34
821.839	87.74
822.276	86.44
822.713	106.14
823.15	109.84
823.587	99.74
824.023	113.64
824.46	239.34
824.897	722.24
825.333	1143.24
825.77	486.74
826.206	189.54
826.643	110.94
827.08	80.94
827.516	66.64
827.953	58.34
828.389	68.04
828.825	56.74
829.262	56.14
829.698	54.44
830.135	51.04
830.571	52.14
831.007	50.34
831.443	55.44
831.88	52.34
832.316	48.64
832.752	52.14
833.188	53.24
833.624	51.64
834.06	54.54
834.497	56.94
834.933	59.34
835.369	62.44
835.805	53.44
836.241	63.44
836.677	67.64
837.112	70.34
837.548	84.14
837.984	112.84
838.42	155.94
838.856	384.14
839.292	1222.54
839.727	1963.24
840.163	904.44
840.599	738.14
841.034	1668.64
841.47	1829.24
841.906	660.54
842.341	275.44
842.777	189.04
843.212	262.84
843.648	262.54
844.083	131.24
844.519	77.34
844.954	65.34
845.39	44.94
845.825	44.24
846.261	46.64
846.696	43.74
847.131	37.04
847.566	47.64
848.002	43.04
848.437	41.94
848.872	49.94
849.307	46.24
849.742	68.84
850.177	144.24
850.613	452.84
851.048	734.74
851.483	318.54
851.918	132.44
852.353	67.04
852.788	51.14
853.223	43.94
853.657	44.74
854.092	37.74
854.527	35.84
854.962	32.24
855.397	41.04
855.832	39.84
856.266	32.14
856.701	35.14
857.136	24.64
857.57	28.24
858.005	40.74
858.44	49.84
858.874	38.64
859.309	40.94
859.743	31.74
860.178	41.24
860.612	37.84
861.047	42.34
861.481	54.04
861.915	54.84
862.35	42.24
862.784	21.64
863.218	32.04
863.653	32.44
864.087	40.94
864.521	41.14
864.955	55.74
865.39	127.24
865.824	143.74
866.258	97.34
866.692	141.04
867.126	156.74
867.56	91.84
867.994	38.04
868.428	29.84
868.862	39.94
869.296	46.84
869.73	47.64
870.164	44.04
870.598	38.84
871.031	35.14
871.465	30.54
871.899	20.34
872.333	21.74
872.766	25.34
873.2	17.34
873.634	22.24
874.067	18.24
874.501	18.04
874.935	27.84
875.368	28.84
875.802	20.84
876.235	18.34
876.669	19.24
877.102	17.24
877.535	22.34
877.969	16.84
878.402	18.34
878.836	15.84
879.269	16.44
879.702	18.04
880.135	15.84
880.569	20.04
881.002	20.64
881.435	16.94
881.868	12.84
882.301	22.94
882.734	12.34
883.167	18.24
883.601	9.14
884.034	20.24
884.467	10.54
884.899	19.84
885.332	13.84
885.765	17.04
886.198	12.24
886.631	9.34
887.064	16.04
887.497	13.54
887.929	21.94
888.362	12.04
888.795	7.64
889.228	12.34
889.66	21.54
890.093	6.84
890.526	8.64
890.958	18.54
891.391	14.64
891.823	14.94
892.256	8.74
892.688	7.94
893.121	15.14
893.553	10.84
893.985	23.84
894.418	21.04
894.85	12.24
895.282	14.04
895.715	15.64
896.147	11.54
896.579	13.34
897.011	6.24
897.444	6.64
897.876	8.14
898.308	12.64
898.74	10.74
899.172	13.54
899.604	21.94
900.036	16.44
900.468	8.34
900.9	9.84
901.332	16.64
901.764	4.14
902.196	11.04
902.628	15.94
903.06	18.04
903.491	23.34
903.923	16.94
904.355	17.14
904.787	21.94
905.218	20.54
905.65	12.44
906.082	11.24
906.513	9.44
906.945	8.14
907.376	11.34
907.808	12.14
908.239	17.14
908.671	14.34
909.102	19.34
909.534	21.64
909.965	36.94
910.397	74.64
910.828	264.14
911.259	413.64
911.691	187.14
912.122	87.44
912.553	42.64
912.984	29.64
913.415	19.14
913.847	18.64
914.278	9.24
914.709	12.64
915.14	19.54
915.571	15.14
916.002	15.74
916.433	16.74
916.864	12.64
917.295	7.24
917.726	21.14
918.157	14.54
918.587	22.84
919.018	19.74
919.449	22.04
919.88	24.54
920.311	26.84
920.741	37.44
921.172	141.14
921.603	124.54
922.033	64.44
922.464	40.24
922.895	19.44
923.325	15.44
923.756	14.14
924.186	9.04
924.617	21.94
925.047	32.94
925.478	44.84
925.908	34.24
926.338	19.24
926.769	9.84
927.199	14.64
927.629	8.04
928.06	14.04
928.49	10.54
928.92	12.34
929.35	6.44
929.78	9.14
930.21	1.54
930.641	2.54
931.071	8.24
931.501	6.44
931.931	2.14
932.361	13.34
932.791	3.64
933.221	9.74
933.651	-1.06
934.08	9.64
934.51	28.64
934.94	10.04
935.37	8.74
935.8	8.14
936.229	9.44
936.659	9.34
937.089	0.64
937.519	6.24
937.948	20.24
938.378	16.44
938.807	5.84
939.237	5.24
939.666	7.14
940.096	-9.06
940.525	-2.86
940.955	3.24
941.384	5.74
941.814	0.84
942.243	0.04
942.672	0.84
943.102	-5.66
943.531	1.54
943.96	10.64
944.39	3.14
944.819	-0.26
945.248	2.94
945.677	0.54
946.106	1.94
946.535	0.64
946.964	4.84
947.393	2.64
947.822	3.14
948.251	-3.66
948.68	1.54
949.109	-0.06
949.538	3.44
949.967	-4.46
950.396	3.04
950.825	-3.56
951.254	2.44
951.682	-6.06
952.111	-2.16
952.54	2.74
952.969	-4.66
953.397	-7.66
953.826	-0.56
954.254	-7.86
954.683	1.44
955.112	-2.46
955.54	-3.16
955.969	2.34
956.397	1.14
956.826	-4.16
957.254	2.34
957.682	-0.86
958.111	4.64
958.539	-3.96
958.967	3.54
959.396	-0.96
959.824	-0.86
960.252	3.74
960.68	-5.26
961.109	-3.66
961.537	-8.76
961.965	0.84
962.393	-3.06
962.821	-2.16
963.249	4.54
963.677	3.04
964.105	4.84
964.533	35.94
964.961	32.04
965.389	15.74
965.817	5.24
966.245	1.34
966.672	1.34
967.1	-7.06
967.528	-1.16
967.956	-4.36
968.383	4.04
968.811	-1.06
969.239	-2.86
969.666	-2.96
970.094	4.24
970.522	3.74
970.949	-2.76
971.377	-6.86
971.804	-5.46
972.232	-3.46
972.659	-0.16
973.087	-7.16
973.514	-0.46
973.941	-7.86
974.369	1.44
974.796	1.54
975.223	2.84
975.651	-2.46
976.078	0.94
976.505	2.54
976.932	0.64
977.359	13.34
977.786	5.44
978.214	3.44
978.641	-2.96
979.068	-9.96
979.495	-4.66
979.922	-3.36
980.349	-4.96
980.776	2.24
981.202	3.04
981.629	4.34
982.056	7.84
982.483	1.24
982.91	4.84
983.337	-3.66
983.763	1.64
984.19	-3.06
984.617	-1.66
985.043	-4.86
985.47	-4.66
985.897	-3.06
986.323	-3.76
986.75	4.74
987.176	-1.16
987.603	2.14
988.029	3.04
988.456	-6.96
988.882	1.24
989.308	-5.96
989.735	-1.56
990.161	-6.16
990.587	-1.86
991.014	-0.56
991.44	6.54
991.866	-5.16
992.292	-4.96
992.719	-7.66
993.145	6.94
993.571	-4.36
993.997	-4.36
994.423	-4.76
994.849	-3.06
995.275	3.04
995.701	-2.06
996.127	-1.66
996.553	-0.16
996.979	-7.86
997.405	-2.96
997.83	-3.16
998.256	-2.16
998.682	-4.26
999.108	-7.06
999.534	0.04
999.959	4.44
1000.385	-2.76
1000.811	-0.56
1001.236	-10.26
1001.662	-11.06
1002.087	-3.46
1002.513	-0.16
1002.938	-0.56
1003.364	5.44
1003.789	-4.96
1004.215	-0.66
1004.64	-2.46
1005.066	0.64
1005.491	-0.56
1005.916	0.44
1006.342	-5.16
1006.767	-4.86
1007.192	-0.26
1007.617	-1.16
1008.042	-8.76
1008.468	-7.86
1008.893	-1.46
1009.318	-4.16
1009.743	-3.46
1010.168	2.14
1010.593	-2.66
1011.018	-7.96
1011.443	-4.76
1011.868	0.84
1012.293	-9.96
1012.718	-1.86
1013.143	-2.96
1013.567	2.54
1013.992	-8.96
1014.417	-16.26
1014.842	0.14
1015.267	-4.06
1015.691	-8.36
1016.116	5.74
1016.541	0.24
1016.965	-5.46
1017.39	4.84
1017.814	5.24
1018.239	-6.46
1018.663	-3.56
1019.088	-10.86
1019.512	3.74
1019.937	-4.86
1020.361	-7.36
1020.785	-8.66
1021.21	-3.56
1021.634	-3.46
1022.058	1.04
1022.483	0.24
1022.907	-2.76
1023.331	-6.16
1023.755	-5.76
1024.179	-3.16
1024.604	-7.66
1025.028	0.34
1025.452	0.14
1025.876	-3.36
1026.3	0.64
1026.724	-11.36
1027.148	-6.76
1027.572	-11.06
1027.996	-2.76
1028.42	-3.56
1028.843	-5.06
1029.267	-10.06
1029.691	-3.36
1030.115	-3.26
1030.539	-10.86
1030.962	-10.26
1031.386	-10.36
1031.81	-1.16
1032.233	-1.16
1032.657	-4.76
1033.08	-4.26
1033.504	-3.86
1033.927	-2.46
1034.351	-4.66
1034.774	-4.66
1035.198	-6.36
1035.621	-4.86
1036.045	-7.46
1036.468	3.74
1036.891	-8.66
1037.315	-8.56
1037.738	-13.86
1038.161	-0.56
1038.584	-5.26
1039.008	0.84
1039.431	1.64
1039.854	-1.36
1040.277	-12.56
1040.7	-11.36
1041.123	-0.76
1041.546	-8.86
1041.969	-3.96
1042.392	-12.66
1042.815	-7.46
1043.238	-3.26
1043.661	2.34
1044.084	-3.36
1044.507	-11.06
1044.93	0.94
1045.352	-5.66
1045.775	-0.36
1046.198	-0.96
1046.621	-2.26
1047.043	-0.66
1047.466	4.44
1047.889	2.14
1048.311	-5.56
1048.734	-4.16
1049.156	-2.76
1049.579	7.14
1050.001	-0.76
1050.424	-2.86
1050.846	-6.76
1051.269	-2.26
1051.691	-1.86
1052.113	-3.76
1052.536	3.54
1052.958	-9.46
1053.38	-4.26
1053.802	-7.76
1054.225	-0.86
1054.647	-5.26
1055.069	-5.46
1055.491	3.04
1055.913	-1.86
1056.335	2.84
1056.757	-5.96
1057.179	-10.56
1057.601	-12.26
1058.023	-6.36
1058.445	-3.76
1058.867	-1.36
1059.289	-3.86
1059.711	-3.56
1060.133	1.54
1060.555	-3.36
1060.976	-1.16
1061.398	-7.86
1061.82	-6.06
1062.241	-10.06
1062.663	-12.66
1063.085	-6.36
1063.506	2.54
1063.928	-2.26
1064.35	-1.36
1064.771	-13.66
1065.193	-3.56
1065.614	-9.56
1066.035	-3.66
1066.457	-2.06
1066.878	-0.46
1067.3	-8.66
1067.721	-3.86
1068.142	-4.26
1068.564	-7.66
1068.985	-1.16
1069.406	-5.86
1069.827	-5.96
1070.248	-4.36
1070.67	-7.16
1071.091	-5.56
1071.512	-8.86
1071.933	-5.36
1072.354	-8.76
1072.775	-5.96
1073.196	-7.36
1073.617	-3.46
1074.038	-7.86
1074.459	-4.96
1074.88	-10.06
1075.3	0.24
1075.721	-6.26
1076.142	0.84
1076.563	-2.56
1076.983	-4.66
1077.404	-4.96
1077.825	-10.56
1078.246	1.34
1078.666	-7.06
1079.087	-2.66
1079.507	-6.96
1079.928	3.64
1080.348	1.74
1080.769	-1.06
1081.189	-4.06
1081.61	4.04
1082.03	-4.76
1082.451	-6.96
1082.871	-4.26
1083.291	-6.56
1083.711	-11.16
1084.132	-2.86
1084.552	-7.06
1084.972	5.44
1085.392	-10.26
1085.813	-7.56
1086.233	-3.16
1086.653	-3.06
1087.073	-5.36
1087.493	-5.56
1087.913	-1.86
1088.333	-3.06
1088.753	-3.66
1089.173	2.44
1089.593	-7.36
1090.013	1.44
1090.433	1.44
1090.852	-4.76
1091.272	2.54
1091.692	-1.46
1092.112	-3.86
1092.531	-6.76
1092.951	-7.66
1093.371	-2.86
1093.79	-1.16
1094.21	-8.56
1094.63	-2.06
1095.049	-1.16
1095.469	0.94
1095.888	-1.76
1096.308	3.24
1096.727	2.14
1097.146	-3.06
1097.566	-0.56
1097.985	-7.16
1098.405	-4.36
1098.824	-4.26
1099.243	-9.16
1099.662	-12.46
1100.082	-7.46
1100.501	-1.56
1100.92	-9.26
1101.339	-4.16
1101.758	-4.96
