Data from 20171114-ORNL-Ar_H_NY_Subt18_08-05-36-785.txt Node
Date: Tue Nov 14 08:05:36 EST 2017
User: Ender
Spectrometer: HR+D1039
Trigger mode: 0
Integration Time (sec): 2.730000E-2
Scans to average: 10
Electric dark correction enabled: true
Nonlinearity correction enabled: false
Boxcar width: 0
XAxis mode: Wavelengths
Number of Pixels in Spectrum: 2048
>>>>>Begin Spectral Data<<<<<
187.836	-2.64
188.309	-2.64
188.782	-2.64
189.255	2.76
189.728	-1.34
190.201	3.66
190.674	2.36
191.147	-1.44
191.619	-9.44
192.092	0.06
192.565	7.56
193.038	4.06
193.511	3.66
193.984	-2.64
194.456	-3.74
194.929	2.46
195.402	-1.94
195.874	-3.44
196.347	2.26
196.82	-7.24
197.292	6.76
197.765	-1.74
198.237	-8.04
198.71	4.16
199.182	-2.24
199.655	5.06
200.127	0.86
200.6	-5.34
201.072	-1.44
201.544	-4.54
202.017	-1.74
202.489	3.06
202.961	0.46
203.433	-3.04
203.906	-4.84
204.378	-5.54
204.85	-1.24
205.322	-8.84
205.794	2.06
206.266	-4.04
206.739	-9.94
207.211	-0.24
207.683	-6.54
208.155	-6.14
208.627	-5.04
209.099	-8.14
209.57	-4.54
210.042	1.86
210.514	2.06
210.986	-3.74
211.458	-4.94
211.93	-3.34
212.402	0.86
212.873	-7.24
213.345	-7.94
213.817	-10.64
214.288	-1.64
214.76	-12.44
215.232	-5.94
215.703	-5.54
216.175	-2.34
216.646	-4.74
217.118	-5.24
217.589	0.76
218.061	-4.94
218.532	-2.84
219.004	5.06
219.475	-3.84
219.946	-2.54
220.418	-5.44
220.889	2.26
221.36	-0.94
221.832	-1.64
222.303	-5.74
222.774	2.76
223.245	-6.34
223.717	-2.14
224.188	-3.44
224.659	-9.34
225.13	-6.64
225.601	-4.34
226.072	-2.84
226.543	-3.04
227.014	-0.74
227.485	-1.74
227.956	-5.84
228.427	0.36
228.898	-1.94
229.369	0.16
229.839	-4.94
230.31	-5.74
230.781	1.76
231.252	-2.34
231.722	-4.54
232.193	-0.84
232.664	-0.04
233.135	-3.24
233.605	-0.64
234.076	-1.24
234.546	1.46
235.017	3.16
235.487	0.36
235.958	-1.74
236.428	0.56
236.899	3.86
237.369	4.46
237.84	-0.04
238.31	5.66
238.78	10.56
239.251	2.76
239.721	4.26
240.191	4.56
240.662	0.46
241.132	-0.94
241.602	-4.74
242.072	1.66
242.542	7.66
243.013	1.16
243.483	0.76
243.953	3.96
244.423	1.76
244.893	-2.84
245.363	5.46
245.833	1.66
246.303	1.16
246.773	8.46
247.243	5.26
247.712	-0.34
248.182	8.86
248.652	8.46
249.122	-1.54
249.592	8.36
250.061	24.16
250.531	31.26
251.001	16.06
251.471	25.16
251.94	18.06
252.41	12.06
252.879	1.76
253.349	9.66
253.818	12.76
254.288	4.36
254.757	6.36
255.227	2.26
255.696	2.96
256.166	2.76
256.635	4.96
257.105	9.46
257.574	11.06
258.043	13.76
258.513	12.56
258.982	18.26
259.451	7.16
259.92	19.66
260.389	9.56
260.859	18.36
261.328	17.66
261.797	18.66
262.266	17.16
262.735	10.66
263.204	10.46
263.673	-0.64
264.142	7.26
264.611	-4.74
265.08	2.16
265.549	1.16
266.018	13.46
266.487	2.46
266.955	-1.34
267.424	-1.54
267.893	5.06
268.362	6.16
268.83	10.66
269.299	14.16
269.768	7.06
270.236	12.46
270.705	4.76
271.174	10.46
271.642	7.16
272.111	9.56
272.579	23.86
273.048	25.86
273.516	35.26
273.985	28.76
274.453	27.36
274.922	19.16
275.39	13.06
275.858	7.26
276.327	19.26
276.795	15.76
277.263	9.76
277.731	31.76
278.2	61.16
278.668	67.36
279.136	55.26
279.604	22.56
280.072	17.26
280.54	10.36
281.008	14.06
281.477	14.86
281.945	15.66
282.413	17.46
282.881	17.46
283.348	8.06
283.816	18.26
284.284	23.26
284.752	24.76
285.22	12.16
285.688	12.86
286.156	22.16
286.623	48.66
287.091	61.06
287.559	25.86
288.026	15.86
288.494	14.96
288.962	7.76
289.429	14.46
289.897	25.26
290.364	26.26
290.832	18.56
291.3	14.56
291.767	18.96
292.234	22.86
292.702	16.06
293.169	19.26
293.637	24.06
294.104	29.16
294.571	8.86
295.039	13.06
295.506	14.16
295.973	18.76
296.44	21.46
296.908	22.96
297.375	25.46
297.842	17.76
298.309	15.06
298.776	22.96
299.243	25.26
299.71	15.86
300.177	22.96
300.644	22.06
301.111	21.06
301.578	21.16
302.045	19.96
302.512	23.96
302.979	27.56
303.446	26.26
303.913	17.46
304.379	25.96
304.846	25.46
305.313	29.46
305.78	29.56
306.246	25.76
306.713	21.06
307.18	31.06
307.646	33.46
308.113	31.66
308.579	26.76
309.046	24.26
309.512	24.96
309.979	21.56
310.445	22.86
310.912	25.16
311.378	38.76
311.845	27.46
312.311	37.86
312.777	33.16
313.244	35.06
313.71	34.96
314.176	38.56
314.642	33.16
315.109	39.86
315.575	35.56
316.041	47.06
316.507	32.56
316.973	34.16
317.439	33.66
317.905	39.16
318.371	43.56
318.837	37.26
319.303	36.86
319.769	31.06
320.235	35.86
320.701	31.76
321.167	37.46
321.633	38.56
322.099	37.96
322.564	48.86
323.03	44.96
323.496	41.56
323.962	41.36
324.427	40.06
324.893	45.46
325.359	37.66
325.824	41.76
326.29	41.86
326.755	44.96
327.221	45.16
327.686	48.06
328.152	47.26
328.617	42.56
329.083	50.36
329.548	46.56
330.014	46.56
330.479	40.66
330.944	51.66
331.41	47.76
331.875	46.66
332.34	43.86
332.805	50.66
333.271	50.86
333.736	49.36
334.201	63.26
334.666	55.46
335.131	56.46
335.596	54.16
336.061	52.86
336.526	49.86
336.991	55.06
337.456	55.36
337.921	51.56
338.386	49.86
338.851	51.16
339.316	48.86
339.781	48.76
340.246	52.66
340.711	52.26
341.175	53.96
341.64	49.96
342.105	58.36
342.569	57.76
343.034	69.36
343.499	62.76
343.963	54.66
344.428	62.76
344.893	64.26
345.357	63.66
345.822	64.56
346.286	70.86
346.751	74.36
347.215	70.86
347.679	79.96
348.144	97.96
348.608	86.16
349.073	70.96
349.537	83.86
350.001	82.36
350.465	89.86
350.93	88.56
351.394	80.26
351.858	78.46
352.322	94.36
352.786	87.26
353.25	105.96
353.715	116.16
354.179	105.76
354.643	118.76
355.107	127.86
355.571	108.96
356.035	104.36
356.498	126.56
356.962	118.66
357.426	130.06
357.89	121.76
358.354	94.06
358.818	89.06
359.281	85.16
359.745	79.76
360.209	80.36
360.673	75.26
361.136	79.86
361.6	86.36
362.064	90.16
362.527	92.06
362.991	95.66
363.454	86.76
363.918	82.76
364.381	80.76
364.845	88.96
365.308	88.96
365.772	91.86
366.235	90.16
366.698	87.06
367.162	91.66
367.625	88.96
368.088	91.86
368.552	95.16
369.015	90.36
369.478	99.26
369.941	105.06
370.404	98.16
370.867	103.76
371.331	110.96
371.794	119.26
372.257	111.66
372.72	115.76
373.183	111.86
373.646	110.06
374.109	108.16
374.572	115.96
375.035	108.96
375.497	108.66
375.96	108.26
376.423	107.56
376.886	115.76
377.349	115.26
377.811	105.06
378.274	110.06
378.737	107.86
379.199	120.26
379.662	119.06
380.125	121.66
380.587	118.86
381.05	126.26
381.512	130.96
381.975	140.36
382.437	130.46
382.9	133.96
383.362	132.86
383.825	146.86
384.287	149.86
384.75	142.36
385.212	140.36
385.674	141.46
386.136	143.46
386.599	129.06
387.061	134.66
387.523	133.06
387.985	136.86
388.447	152.56
388.91	149.96
389.372	157.16
389.834	152.76
390.296	148.46
390.758	155.46
391.22	168.86
391.682	207.66
392.144	302.36
392.606	231.66
393.068	173.56
393.529	166.76
393.991	162.46
394.453	148.96
394.915	163.26
395.377	199.86
395.838	221.26
396.3	158.26
396.762	143.96
397.224	135.36
397.685	134.46
398.147	142.36
398.608	133.96
399.07	132.36
399.531	136.06
399.993	145.56
400.454	159.16
400.916	146.66
401.377	145.86
401.839	154.66
402.3	161.16
402.762	168.46
403.223	183.66
403.684	178.26
404.145	165.06
404.607	166.16
405.068	167.46
405.529	168.86
405.99	191.76
406.451	180.16
406.913	176.16
407.374	164.26
407.835	160.06
408.296	170.86
408.757	178.36
409.218	186.86
409.679	183.06
410.14	180.16
410.601	176.16
411.062	186.36
411.522	192.06
411.983	192.06
412.444	187.06
412.905	182.66
413.366	179.16
413.826	194.96
414.287	217.66
414.748	263.76
415.208	256.76
415.669	216.36
416.13	212.16
416.59	198.46
417.051	216.66
417.511	218.66
417.972	236.86
418.432	247.36
418.893	288.96
419.353	256.76
419.814	201.76
420.274	188.26
420.734	186.56
421.195	205.46
421.655	194.76
422.115	196.26
422.576	196.46
423.036	201.86
423.496	214.76
423.956	221.76
424.416	234.86
424.876	273.86
425.336	260.36
425.797	261.46
426.257	267.96
426.717	242.36
427.177	234.76
427.637	230.36
428.097	240.06
428.556	256.36
429.016	272.06
429.476	267.66
429.936	275.36
430.396	291.26
430.856	301.86
431.315	319.06
431.775	353.16
432.235	384.26
432.694	359.46
433.154	373.86
433.614	403.16
434.073	341.16
434.533	291.36
434.993	278.96
435.452	288.76
435.912	295.66
436.371	288.86
436.83	287.46
437.29	274.86
437.749	251.56
438.209	249.16
438.668	276.86
439.127	293.46
439.587	266.96
440.046	251.56
440.505	263.46
440.964	289.36
441.424	335.76
441.883	319.16
442.342	266.76
442.801	227.56
443.26	227.96
443.719	225.86
444.178	223.36
444.637	210.56
445.096	226.86
445.555	225.26
446.014	233.46
446.473	222.66
446.932	239.56
447.391	227.66
447.849	224.86
448.308	217.66
448.767	222.36
449.226	240.26
449.685	247.16
450.143	257.46
450.602	243.46
451.061	234.36
451.519	239.26
451.978	234.06
452.436	235.86
452.895	245.46
453.353	265.06
453.812	237.96
454.27	244.56
454.729	241.56
455.187	245.06
455.646	251.16
456.104	250.26
456.562	257.56
457.021	271.86
457.479	266.26
457.937	275.26
458.395	264.46
458.854	258.56
459.312	266.86
459.77	283.26
460.228	260.16
460.686	247.16
461.144	255.86
461.602	250.76
462.06	257.76
462.518	263.56
462.976	253.46
463.434	263.36
463.892	266.16
464.35	273.06
464.808	290.16
465.266	274.56
465.724	274.46
466.181	277.96
466.639	275.36
467.097	283.56
467.555	308.66
468.012	304.86
468.47	320.36
468.928	337.66
469.385	345.76
469.843	350.96
470.3	358.66
470.758	367.16
471.215	384.36
471.673	412.06
472.13	410.26
472.588	425.86
473.045	375.96
473.503	379.66
473.96	395.66
474.417	414.56
474.875	437.16
475.332	480.06
475.789	466.86
476.246	478.06
476.704	490.56
477.161	514.26
477.618	537.36
478.075	563.96
478.532	625.16
478.989	707.06
479.446	817.46
479.903	787.46
480.36	821.96
480.817	881.86
481.274	983.86
481.731	1084.76
482.188	1176.56
482.645	1320.36
483.102	1435.16
483.558	1576.46
484.015	1607.66
484.472	1596.86
484.929	1542.96
485.385	1487.96
485.842	1461.46
486.299	1386.86
486.755	1323.16
487.212	1106.86
487.668	934.76
488.125	869.96
488.582	797.26
489.038	762.86
489.494	725.36
489.951	700.06
490.407	685.56
490.864	657.36
491.32	651.56
491.776	645.06
492.233	660.96
492.689	615.16
493.145	627.56
493.602	602.76
494.058	620.56
494.514	629.36
494.97	646.36
495.426	658.46
495.882	639.16
496.338	626.66
496.794	638.56
497.251	629.16
497.707	645.36
498.163	654.96
498.618	648.66
499.074	656.46
499.53	688.96
499.986	689.16
500.442	664.46
500.898	634.86
501.354	642.66
501.809	646.96
502.265	652.46
502.721	673.96
503.177	692.66
503.632	674.66
504.088	688.46
504.543	720.96
504.999	717.86
505.455	670.86
505.91	646.76
506.366	647.66
506.821	636.06
507.277	629.36
507.732	635.96
508.187	626.16
508.643	645.36
509.098	646.86
509.553	658.66
510.009	663.86
510.464	676.16
510.919	698.36
511.375	707.56
511.83	702.56
512.285	735.56
512.74	777.66
513.195	801.16
513.65	785.56
514.105	779.06
514.56	779.96
515.015	798.16
515.47	820.96
515.925	811.86
516.38	817.76
516.835	814.56
517.29	802.36
517.745	788.06
518.2	764.26
518.655	758.56
519.109	752.06
519.564	757.06
520.019	747.06
520.474	725.86
520.928	733.86
521.383	730.06
521.838	738.96
522.292	726.56
522.747	729.76
523.201	717.26
523.656	717.76
524.11	698.86
524.565	705.16
525.019	696.46
525.474	710.76
525.928	712.86
526.382	707.46
526.837	699.36
527.291	711.86
527.745	704.86
528.2	704.06
528.654	695.16
529.108	699.86
529.562	702.16
530.016	700.56
530.47	698.46
530.925	708.66
531.379	703.86
531.833	714.06
532.287	712.86
532.741	710.36
533.195	718.16
533.649	719.06
534.103	727.96
534.556	717.86
535.01	712.76
535.464	719.86
535.918	724.76
536.372	733.06
536.826	727.06
537.279	719.46
537.733	724.86
538.187	720.86
538.64	735.36
539.094	734.76
539.548	734.96
540.001	732.46
540.455	731.36
540.908	731.36
541.362	740.36
541.815	748.36
542.269	753.06
542.722	762.66
543.175	766.56
543.629	773.66
544.082	788.76
544.536	784.16
544.989	802.36
545.442	803.66
545.895	791.16
546.349	791.86
546.802	793.86
547.255	801.56
547.708	814.06
548.161	822.56
548.614	827.96
549.067	832.06
549.52	834.16
549.973	815.36
550.426	811.86
550.879	813.06
551.332	812.46
551.785	811.06
552.238	817.66
552.691	821.66
553.144	835.46
553.596	845.56
554.049	865.76
554.502	894.56
554.955	925.06
555.407	916.16
555.86	918.66
556.313	907.96
556.765	892.86
557.218	902.26
557.67	903.56
558.123	883.76
558.576	876.26
559.028	876.06
559.48	890.56
559.933	881.66
560.385	842.46
560.838	817.66
561.29	791.46
561.742	786.76
562.195	767.26
562.647	771.16
563.099	782.86
563.551	777.36
564.004	788.36
564.456	772.06
564.908	763.96
565.36	756.16
565.812	727.86
566.264	725.06
566.716	728.46
567.168	719.86
567.62	718.96
568.072	703.76
568.524	701.46
568.976	693.96
569.428	674.06
569.88	679.76
570.332	687.46
570.784	682.36
571.235	689.86
571.687	691.56
572.139	702.06
572.59	723.86
573.042	715.86
573.494	713.26
573.945	710.86
574.397	697.26
574.849	688.76
575.3	694.96
575.752	681.36
576.203	674.86
576.655	685.96
577.106	675.26
577.557	668.66
578.009	665.46
578.46	665.26
578.912	659.96
579.363	662.36
579.814	677.76
580.265	668.46
580.717	669.46
581.168	668.56
581.619	682.26
582.07	682.26
582.521	677.86
582.972	661.36
583.423	670.86
583.875	675.86
584.326	700.86
584.777	731.56
585.227	812.56
585.678	901.66
586.129	1004.96
586.58	1064.26
587.031	1159.26
587.482	1312.16
587.933	1491.96
588.384	1296.66
588.834	972.86
589.285	800.06
589.736	790.86
590.186	771.46
590.637	767.96
591.088	742.76
591.538	734.66
591.989	728.76
592.439	721.06
592.89	712.36
593.34	707.46
593.791	709.86
594.241	707.56
594.692	704.26
595.142	700.46
595.593	697.46
596.043	705.46
596.493	710.66
596.943	705.96
597.394	712.96
597.844	717.06
598.294	713.56
598.744	740.96
599.195	757.76
599.645	812.36
600.095	850.16
600.545	897.36
600.995	963.36
601.445	1015.46
601.895	1067.76
602.345	1119.96
602.795	1102.56
603.245	1059.26
603.695	1002.86
604.145	951.76
604.594	910.66
605.044	848.26
605.494	787.26
605.944	757.36
606.393	740.36
606.843	723.96
607.293	730.66
607.743	730.76
608.192	737.06
608.642	746.56
609.091	757.16
609.541	774.06
609.99	759.06
610.44	767.26
610.889	707.56
611.339	690.56
611.788	681.96
612.238	695.86
612.687	710.66
613.136	711.16
613.586	726.26
614.035	720.86
614.484	755.56
614.933	749.26
615.383	736.86
615.832	730.76
616.281	719.46
616.73	679.86
617.179	658.26
617.628	648.26
618.077	623.16
618.526	607.56
618.975	603.26
619.424	609.76
619.873	602.86
620.322	613.56
620.771	607.46
621.22	597.06
621.669	587.46
622.118	586.76
622.567	567.06
623.015	566.86
623.464	563.66
623.913	553.66
624.361	539.26
624.81	544.66
625.259	547.06
625.707	546.46
626.156	549.16
626.604	555.86
627.053	553.86
627.501	549.76
627.95	552.56
628.398	568.66
628.847	563.46
629.295	554.26
629.744	559.06
630.192	557.06
630.64	555.36
631.089	562.66
631.537	566.06
631.985	573.16
632.433	582.56
632.881	596.56
633.33	646.26
633.778	621.46
634.226	552.86
634.674	563.86
635.122	561.76
635.57	582.26
636.018	612.76
636.466	578.46
636.914	549.86
637.362	555.06
637.81	559.06
638.258	564.36
638.705	562.36
639.153	589.96
639.601	601.76
640.049	634.86
640.497	650.16
640.944	673.76
641.392	636.06
641.84	594.76
642.287	569.16
642.735	554.86
643.182	556.86
643.63	562.86
644.078	569.56
644.525	582.86
644.973	574.66
645.42	592.26
645.867	613.26
646.315	630.66
646.762	645.56
647.21	674.66
647.657	694.56
648.104	728.26
648.551	746.06
648.999	815.16
649.446	892.06
649.893	986.56
650.34	1123.66
650.787	1350.76
651.234	1676.26
651.682	2189.96
652.129	2988.36
652.576	4296.46
653.023	6354.36
653.47	8719.96
653.917	10960.36
654.363	12680.86
654.81	14080.66
655.257	13435.16
655.704	8776.36
656.151	5184.96
656.598	3335.96
657.044	2375.36
657.491	1817.16
657.938	1453.36
658.385	1221.86
658.831	1064.06
659.278	938.46
659.724	843.76
660.171	772.76
660.618	708.76
661.064	673.26
661.511	651.16
661.957	630.66
662.404	630.46
662.85	632.06
663.296	608.96
663.743	554.16
664.189	515.96
664.635	520.06
665.082	518.36
665.528	512.96
665.974	500.16
666.42	497.16
666.867	500.76
667.313	476.26
667.759	463.36
668.205	459.36
668.651	476.66
669.097	480.76
669.543	488.46
669.989	461.66
670.435	435.96
670.881	434.86
671.327	443.96
671.773	455.96
672.219	477.46
672.665	523.86
673.11	565.76
673.556	604.56
674.002	652.96
674.448	630.16
674.893	530.66
675.339	460.46
675.785	427.16
676.23	405.56
676.676	373.56
677.122	367.96
677.567	359.16
678.013	355.16
678.458	355.86
678.904	352.26
679.349	335.76
679.794	343.96
680.24	336.06
680.685	342.66
681.131	338.36
681.576	341.56
682.021	341.46
682.466	339.36
682.912	335.16
683.357	336.06
683.802	369.76
684.247	400.56
684.692	445.16
685.137	487.26
685.583	517.96
686.028	539.46
686.473	503.56
686.918	431.56
687.363	407.66
687.807	373.16
688.252	349.46
688.697	347.86
689.142	324.76
689.587	319.26
690.032	316.16
690.477	335.66
690.921	337.96
691.366	371.96
691.811	398.96
692.255	413.96
692.7	443.66
693.145	475.76
693.589	648.56
694.034	1060.46
694.478	1461.56
694.923	1666.56
695.367	2192.36
695.812	1158.06
696.256	477.16
696.701	361.26
697.145	334.06
697.59	320.56
698.034	308.56
698.478	313.16
698.922	311.46
699.367	322.06
699.811	331.36
700.255	345.66
700.699	377.06
701.143	408.06
701.588	459.16
702.032	496.16
702.476	492.36
702.92	468.56
703.364	472.86
703.808	600.86
704.252	968.86
704.696	1381.26
705.14	1606.76
705.584	2058.06
706.027	1031.56
706.471	507.16
706.915	381.76
707.359	334.66
707.803	312.96
708.246	293.66
708.69	302.16
709.134	303.96
709.577	296.96
710.021	307.96
710.465	294.56
710.908	288.36
711.352	287.36
711.795	299.06
712.239	332.86
712.682	367.16
713.126	398.66
713.569	451.06
714.012	361.76
714.456	312.76
714.899	288.36
715.342	265.26
715.786	256.36
716.229	242.76
716.672	241.96
717.115	241.46
717.558	244.06
718.002	239.36
718.445	249.76
718.888	281.56
719.331	283.66
719.774	292.16
720.217	292.96
720.66	268.66
721.103	257.86
721.546	242.56
721.989	248.56
722.432	222.36
722.874	228.86
723.317	219.96
723.76	226.66
724.203	246.36
724.645	305.06
725.088	419.46
725.531	545.46
725.974	625.66
726.416	535.06
726.859	294.46
727.301	237.96
727.744	227.86
728.187	226.56
728.629	229.96
729.071	229.96
729.514	247.96
729.956	266.76
730.399	272.66
730.841	271.56
731.283	264.86
731.726	249.16
732.168	245.56
732.61	254.46
733.053	273.96
733.495	290.56
733.937	330.56
734.379	378.16
734.821	411.66
735.263	511.56
735.705	792.66
736.148	1486.56
736.59	2443.16
737.032	2942.66
737.474	2407.16
737.916	772.56
738.357	413.56
738.799	309.26
739.241	281.16
739.683	273.86
740.125	281.56
740.567	288.36
741.008	303.66
741.45	303.46
741.892	301.96
742.334	318.96
742.775	342.16
743.217	320.36
743.658	258.36
744.1	241.06
744.542	250.46
744.983	297.96
745.425	316.96
745.866	323.26
746.307	269.86
746.749	264.66
747.19	303.76
747.632	422.16
748.073	818.76
748.514	1738.06
748.956	2704.76
749.397	3385.96
749.838	2824.26
750.279	2851.16
750.72	1436.96
751.162	521.96
751.603	308.26
752.044	238.76
752.485	207.86
752.926	199.46
753.367	195.76
753.808	185.26
754.249	182.86
754.69	178.16
755.131	175.96
755.572	173.16
756.013	173.96
756.453	178.66
756.894	179.16
757.335	181.96
757.776	188.26
758.216	186.16
758.657	191.56
759.098	181.06
759.538	214.36
759.979	255.66
760.42	350.66
760.86	657.96
761.301	1691.26
761.741	4164.56
762.182	6200.96
762.622	4393.16
763.063	1257.96
763.503	514.96
763.943	328.46
764.384	325.76
764.824	396.66
765.264	427.06
765.705	297.26
766.145	200.26
766.585	180.16
767.025	173.36
767.465	175.76
767.906	225.26
768.346	300.16
768.786	331.86
769.226	253.26
769.666	298.36
770.106	579.46
770.546	1458.06
770.986	2529.06
771.426	2299.06
771.866	760.86
772.306	310.86
772.745	202.86
773.185	169.06
773.625	164.06
774.065	152.06
774.505	186.96
774.944	284.06
775.384	625.66
775.824	1146.86
776.263	1141.16
776.703	479.86
777.142	213.06
777.582	148.66
778.021	136.76
778.461	136.06
778.9	132.86
779.34	133.06
779.779	116.56
780.219	104.06
780.658	105.06
781.097	102.96
781.537	112.46
781.976	106.36
782.415	101.26
782.855	100.86
783.294	105.56
783.733	100.06
784.172	108.26
784.611	100.76
785.05	108.16
785.489	106.16
785.928	110.66
786.367	117.36
786.806	114.76
787.245	125.06
787.684	125.56
788.123	144.06
788.562	130.16
789.001	127.76
789.44	119.86
789.879	118.56
790.317	114.46
790.756	124.16
791.195	119.96
791.634	136.56
792.072	195.66
792.511	336.66
792.95	931.06
793.388	2031.16
793.827	1867.16
794.265	650.86
794.704	269.16
795.142	178.06
795.581	148.96
796.019	128.66
796.458	122.86
796.896	112.96
797.334	126.76
797.773	146.96
798.211	202.06
798.649	402.96
799.087	959.06
799.526	1511.06
799.964	1895.86
800.402	1944.86
800.84	737.36
801.278	289.16
801.716	175.16
802.154	144.46
802.592	143.46
803.03	129.96
803.468	132.76
803.906	145.76
804.344	134.56
804.782	137.76
805.22	124.66
805.658	126.36
806.096	138.36
806.533	155.86
806.971	169.36
807.409	207.36
807.847	297.56
808.284	608.46
808.722	1738.76
809.16	3118.86
809.597	2924.66
810.035	5138.66
810.472	5613.76
810.91	2012.66
811.347	764.66
811.785	380.26
812.222	249.56
812.66	192.96
813.097	154.16
813.535	139.76
813.972	127.46
814.409	117.46
814.846	107.86
815.284	103.26
815.721	96.16
816.158	106.36
816.595	114.16
817.032	165.66
817.47	188.26
817.907	172.26
818.344	142.06
818.781	110.26
819.218	94.56
819.655	120.16
820.092	175.46
820.529	200.06
820.966	164.86
821.403	128.76
821.839	101.06
822.276	95.36
822.713	116.66
823.15	128.06
823.587	114.36
824.023	133.86
824.46	278.86
824.897	836.36
825.333	1305.16
825.77	551.96
826.206	223.26
826.643	125.06
827.08	97.06
827.516	78.36
827.953	71.86
828.389	72.06
828.825	68.66
829.262	66.26
829.698	62.96
830.135	60.76
830.571	58.66
831.007	53.56
831.443	61.56
831.88	63.36
832.316	62.16
832.752	60.26
833.188	59.96
833.624	64.76
834.06	63.06
834.497	68.66
834.933	72.56
835.369	73.36
835.805	67.66
836.241	78.56
836.677	74.36
837.112	88.86
837.548	93.76
837.984	123.16
838.42	194.76
838.856	459.96
839.292	1420.16
839.727	2219.66
840.163	1021.56
840.599	861.06
841.034	1920.66
841.47	2044.06
841.906	748.16
842.341	320.66
842.777	217.36
843.212	295.56
843.648	297.66
844.083	145.26
844.519	94.06
844.954	65.06
845.39	50.66
845.825	60.96
846.261	58.86
846.696	57.46
847.131	49.36
847.566	57.96
848.002	48.26
848.437	54.46
848.872	62.56
849.307	58.66
849.742	81.16
850.177	168.06
850.613	521.16
851.048	842.96
851.483	369.66
851.918	153.96
852.353	76.26
852.788	61.16
853.223	57.06
853.657	52.36
854.092	51.36
854.527	42.46
854.962	43.56
855.397	45.56
855.832	52.06
856.266	44.16
856.701	32.56
857.136	38.96
857.57	39.26
858.005	44.26
858.44	58.26
858.874	43.06
859.309	52.26
859.743	35.06
860.178	43.26
860.612	40.26
861.047	48.46
861.481	66.46
861.915	61.26
862.35	48.36
862.784	36.36
863.218	38.16
863.653	32.26
864.087	46.16
864.521	53.06
864.955	64.76
865.39	145.66
865.824	164.46
866.258	105.36
866.692	157.46
867.126	166.56
867.56	104.16
867.994	47.56
868.428	31.76
868.862	48.66
869.296	57.36
869.73	51.76
870.164	51.26
870.598	40.06
871.031	35.06
871.465	32.36
871.899	32.16
872.333	23.76
872.766	23.66
873.2	20.76
873.634	32.16
874.067	31.96
874.501	24.46
874.935	37.96
875.368	29.16
875.802	25.56
876.235	24.26
876.669	19.56
877.102	18.86
877.535	18.96
877.969	26.66
878.402	27.86
878.836	23.86
879.269	29.56
879.702	24.66
880.135	20.76
880.569	21.96
881.002	31.86
881.435	19.66
881.868	17.66
882.301	21.76
882.734	13.46
883.167	19.96
883.601	17.66
884.034	19.26
884.467	11.86
884.899	19.36
885.332	21.26
885.765	15.76
886.198	9.76
886.631	22.66
887.064	16.36
887.497	22.46
887.929	22.36
888.362	14.36
888.795	8.96
889.228	13.86
889.66	22.96
890.093	17.66
890.526	18.16
890.958	15.86
891.391	22.76
891.823	18.46
892.256	12.66
892.688	10.46
893.121	16.76
893.553	17.26
893.985	21.86
894.418	20.56
894.85	15.56
895.282	15.86
895.715	19.36
896.147	17.66
896.579	20.56
897.011	7.96
897.444	9.06
897.876	6.06
898.308	19.06
898.74	16.06
899.172	12.26
899.604	21.16
900.036	20.36
900.468	13.56
900.9	14.66
901.332	20.56
901.764	18.26
902.196	19.46
902.628	19.06
903.06	17.86
903.491	31.06
903.923	27.16
904.355	24.76
904.787	26.76
905.218	24.16
905.65	19.26
906.082	12.76
906.513	13.56
906.945	12.46
907.376	15.26
907.808	12.66
908.239	9.86
908.671	18.96
909.102	22.66
909.534	18.86
909.965	46.66
910.397	93.96
910.828	297.36
911.259	456.76
911.691	204.86
912.122	98.86
912.553	47.96
912.984	31.96
913.415	22.16
913.847	27.66
914.278	20.66
914.709	13.86
915.14	16.16
915.571	19.76
916.002	13.86
916.433	15.26
916.864	18.46
917.295	8.26
917.726	21.36
918.157	17.26
918.587	27.76
919.018	25.96
919.449	18.96
919.88	22.66
920.311	31.66
920.741	42.16
921.172	155.16
921.603	146.16
922.033	68.46
922.464	45.06
922.895	21.76
923.325	16.66
923.756	11.96
924.186	13.56
924.617	29.96
925.047	43.56
925.478	51.36
925.908	43.26
926.338	23.16
926.769	15.46
927.199	20.16
927.629	6.76
928.06	15.16
928.49	12.86
928.92	14.26
929.35	12.86
929.78	6.46
930.21	8.86
930.641	13.76
931.071	2.76
931.501	3.16
931.931	7.56
932.361	8.16
932.791	0.56
933.221	8.06
933.651	8.46
934.08	20.96
934.51	29.26
934.94	13.36
935.37	9.66
935.8	17.66
936.229	13.06
936.659	5.86
937.089	2.76
937.519	5.36
937.948	27.16
938.378	18.86
938.807	3.96
939.237	4.06
939.666	9.46
940.096	0.66
940.525	2.56
940.955	4.16
941.384	5.66
941.814	-2.44
942.243	-2.24
942.672	1.86
943.102	-3.74
943.531	1.26
943.96	5.96
944.39	6.06
944.819	0.76
945.248	0.86
945.677	1.76
946.106	5.96
946.535	7.46
946.964	-2.54
947.393	-0.54
947.822	5.46
948.251	-4.64
948.68	1.26
949.109	4.36
949.538	5.86
949.967	3.46
950.396	-3.14
950.825	0.56
951.254	-1.44
951.682	-3.64
952.111	0.36
952.54	2.46
952.969	-3.14
953.397	-9.04
953.826	-1.24
954.254	-2.24
954.683	2.96
955.112	1.26
955.54	0.96
955.969	-0.14
956.397	2.76
956.826	3.36
957.254	3.96
957.682	-2.64
958.111	3.26
958.539	2.96
958.967	2.56
959.396	-1.34
959.824	0.66
960.252	3.36
960.68	-5.44
961.109	4.46
961.537	-1.54
961.965	2.66
962.393	-0.34
962.821	-4.34
963.249	-0.44
963.677	5.96
964.105	8.76
964.533	47.96
964.961	39.66
965.389	22.46
965.817	11.36
966.245	3.26
966.672	4.66
967.1	-4.44
967.528	4.46
967.956	0.46
968.383	-1.54
968.811	-1.24
969.239	-7.34
969.666	-4.44
970.094	3.16
970.522	1.36
970.949	-1.14
971.377	-3.84
971.804	1.46
972.232	-3.14
972.659	-0.14
973.087	-2.84
973.514	-1.04
973.941	-5.24
974.369	5.46
974.796	-0.04
975.223	-1.24
975.651	0.06
976.078	2.36
976.505	-0.54
976.932	5.06
977.359	14.86
977.786	16.06
978.214	5.56
978.641	0.96
979.068	3.46
979.495	-7.04
979.922	2.06
980.349	0.36
980.776	4.46
981.202	-0.74
981.629	3.06
982.056	8.56
982.483	2.06
982.91	7.26
983.337	-6.04
983.763	5.06
984.19	0.66
984.617	-3.14
985.043	0.16
985.47	0.16
985.897	-5.74
986.323	-6.44
986.75	4.76
987.176	-3.14
987.603	-1.04
988.029	-1.34
988.456	-0.74
988.882	4.16
989.308	-4.24
989.735	3.86
990.161	6.66
990.587	-7.54
991.014	1.86
991.44	6.56
991.866	-5.14
992.292	-8.84
992.719	-2.64
993.145	-3.84
993.571	-4.24
993.997	-6.34
994.423	2.86
994.849	-8.44
995.275	2.06
995.701	3.36
996.127	3.66
996.553	2.86
996.979	-5.94
997.405	-4.54
997.83	-3.54
998.256	-2.04
998.682	-5.64
999.108	-6.84
999.534	2.96
999.959	2.26
1000.385	1.66
1000.811	3.46
1001.236	-5.64
1001.662	-6.74
1002.087	-8.44
1002.513	-2.04
1002.938	2.06
1003.364	-8.54
1003.789	-1.64
1004.215	8.26
1004.64	-2.84
1005.066	4.76
1005.491	2.06
1005.916	0.26
1006.342	-1.04
1006.767	-10.24
1007.192	6.66
1007.617	-7.04
1008.042	-7.64
1008.468	-5.44
1008.893	-1.34
1009.318	-5.24
1009.743	-2.74
1010.168	1.76
1010.593	-0.14
1011.018	-8.14
1011.443	-4.94
1011.868	3.16
1012.293	-3.54
1012.718	-6.14
1013.143	-5.54
1013.567	1.06
1013.992	-0.24
1014.417	-11.14
1014.842	1.16
1015.267	0.46
1015.691	-1.34
1016.116	6.26
1016.541	-3.64
1016.965	1.06
1017.39	4.66
1017.814	1.46
1018.239	-0.94
1018.663	-9.34
1019.088	-12.14
1019.512	-6.94
1019.937	-2.04
1020.361	-2.54
1020.785	-6.44
1021.21	4.66
1021.634	-2.64
1022.058	-2.14
1022.483	7.36
1022.907	-6.64
1023.331	-3.64
1023.755	-0.84
1024.179	2.96
1024.604	-9.74
1025.028	-6.24
1025.452	-2.34
1025.876	-1.24
1026.3	-2.14
1026.724	-11.44
1027.148	-2.64
1027.572	-4.64
1027.996	-1.84
1028.42	-6.44
1028.843	3.46
1029.267	-3.84
1029.691	0.06
1030.115	-5.54
1030.539	-9.14
1030.962	-6.94
1031.386	-9.74
1031.81	3.96
1032.233	0.16
1032.657	-2.54
1033.08	-3.94
1033.504	-2.74
1033.927	-4.64
1034.351	0.06
1034.774	-7.14
1035.198	-5.04
1035.621	-7.14
1036.045	-2.04
1036.468	-1.24
1036.891	-13.34
1037.315	-7.34
1037.738	-11.54
1038.161	4.16
1038.584	-1.94
1039.008	-3.34
1039.431	-2.64
1039.854	-4.44
1040.277	-12.64
1040.7	-7.04
1041.123	-3.84
1041.546	-9.54
1041.969	-5.44
1042.392	-5.64
1042.815	-1.14
1043.238	-1.14
1043.661	4.86
1044.084	-9.14
1044.507	-5.44
1044.93	-5.74
1045.352	-3.94
1045.775	-1.44
1046.198	3.26
1046.621	-0.84
1047.043	1.56
1047.466	7.06
1047.889	-0.64
1048.311	-11.44
1048.734	1.06
1049.156	-3.04
1049.579	1.06
1050.001	-1.14
1050.424	-0.34
1050.846	-4.34
1051.269	-3.54
1051.691	-7.54
1052.113	-7.44
1052.536	2.76
1052.958	-0.14
1053.38	-0.24
1053.802	-10.54
1054.225	3.36
1054.647	-8.94
1055.069	-4.84
1055.491	-1.94
1055.913	-9.84
1056.335	-2.24
1056.757	-8.04
1057.179	-5.94
1057.601	-2.04
1058.023	-4.74
1058.445	-2.64
1058.867	-5.14
1059.289	-1.44
1059.711	-5.74
1060.133	-7.34
1060.555	-7.54
1060.976	-12.84
1061.398	-9.64
1061.82	-5.64
1062.241	-8.54
1062.663	-7.14
1063.085	-0.74
1063.506	-5.04
1063.928	-4.54
1064.35	-1.04
1064.771	-8.44
1065.193	1.86
1065.614	-8.14
1066.035	0.46
1066.457	-3.64
1066.878	0.06
1067.3	-8.94
1067.721	-0.34
1068.142	-5.54
1068.564	-1.94
1068.985	-6.34
1069.406	1.66
1069.827	-2.34
1070.248	6.06
1070.67	1.26
1071.091	-4.84
1071.512	-2.14
1071.933	-8.24
1072.354	-2.54
1072.775	-2.14
1073.196	-9.54
1073.617	-7.94
1074.038	-4.74
1074.459	-3.74
1074.88	-4.64
1075.3	0.56
1075.721	-4.14
1076.142	2.16
1076.563	-5.54
1076.983	-12.84
1077.404	-1.24
1077.825	-13.34
1078.246	-8.74
1078.666	-3.44
1079.087	-4.34
1079.507	-9.34
1079.928	6.96
1080.348	-7.14
1080.769	-5.54
1081.189	3.96
1081.61	-4.24
1082.03	-6.34
1082.451	-10.14
1082.871	-2.04
1083.291	-8.34
1083.711	-5.24
1084.132	-2.74
1084.552	-6.54
1084.972	-1.24
1085.392	-7.54
1085.813	-9.24
1086.233	-8.54
1086.653	-7.44
1087.073	-0.84
1087.493	-9.14
1087.913	-6.94
1088.333	-2.74
1088.753	-3.24
1089.173	2.36
1089.593	-8.74
1090.013	0.06
1090.433	3.16
1090.852	-5.24
1091.272	-4.64
1091.692	0.96
1092.112	-3.74
1092.531	-9.74
1092.951	-10.94
1093.371	-5.44
1093.79	-1.14
1094.21	-2.04
1094.63	-2.44
1095.049	-11.44
1095.469	-5.34
1095.888	-3.34
1096.308	1.96
1096.727	4.76
1097.146	-10.74
1097.566	3.76
1097.985	-1.74
1098.405	-0.84
1098.824	-4.64
1099.243	-2.34
1099.662	-4.54
1100.082	-2.64
1100.501	-1.44
1100.92	-8.84
1101.339	-3.44
1101.758	-7.54
