Data from 20171114-ORNL-Ar_H_NY_Subt18_08-09-24-779.txt Node
Date: Tue Nov 14 08:09:24 EST 2017
User: Ender
Spectrometer: HR+D1039
Trigger mode: 0
Integration Time (sec): 2.730000E-2
Scans to average: 10
Electric dark correction enabled: true
Nonlinearity correction enabled: false
Boxcar width: 0
XAxis mode: Wavelengths
Number of Pixels in Spectrum: 2048
>>>>>Begin Spectral Data<<<<<
187.836	-3.65
188.309	-3.65
188.782	-3.65
189.255	-4.25
189.728	-3.55
190.201	8.05
190.674	1.15
191.147	-0.65
191.619	-6.95
192.092	3.25
192.565	6.95
193.038	-2.75
193.511	4.55
193.984	-1.65
194.456	-2.95
194.929	3.05
195.402	-0.55
195.874	-0.05
196.347	-2.35
196.82	-5.05
197.292	5.45
197.765	-2.25
198.237	-10.25
198.71	2.05
199.182	-9.35
199.655	5.85
200.127	-0.55
200.6	1.55
201.072	3.45
201.544	-4.65
202.017	-4.85
202.489	6.05
202.961	0.15
203.433	-4.55
203.906	-6.05
204.378	-9.55
204.85	-5.25
205.322	-11.95
205.794	-4.25
206.266	-2.65
206.739	-8.75
207.211	3.35
207.683	-9.45
208.155	-2.85
208.627	-4.05
209.099	-2.25
209.57	-5.65
210.042	-7.55
210.514	-0.25
210.986	-3.55
211.458	-4.75
211.93	-4.55
212.402	5.55
212.873	-3.15
213.345	-8.75
213.817	-13.45
214.288	-7.65
214.76	-7.05
215.232	-6.55
215.703	0.45
216.175	-6.65
216.646	-1.55
217.118	-10.95
217.589	-3.85
218.061	-10.65
218.532	-2.15
219.004	-2.25
219.475	-6.75
219.946	-2.65
220.418	-8.45
220.889	2.45
221.36	-1.85
221.832	-9.95
222.303	-8.25
222.774	-0.45
223.245	-14.75
223.717	-7.45
224.188	0.35
224.659	-11.95
225.13	-5.65
225.601	-0.05
226.072	-1.95
226.543	-3.55
227.014	-1.85
227.485	-1.65
227.956	-7.05
228.427	0.15
228.898	-1.85
229.369	1.55
229.839	-1.55
230.31	-4.45
230.781	-1.05
231.252	-4.05
231.722	-3.85
232.193	-12.25
232.664	-0.85
233.135	-1.15
233.605	-4.35
234.076	-11.05
234.546	-1.15
235.017	0.65
235.487	-4.15
235.958	-1.35
236.428	-9.15
236.899	-5.55
237.369	-2.15
237.84	-2.55
238.31	-0.65
238.78	-3.65
239.251	-9.85
239.721	-5.15
240.191	-1.65
240.662	-7.25
241.132	-9.85
241.602	-5.55
242.072	-3.85
242.542	0.95
243.013	-8.85
243.483	-3.55
243.953	-5.15
244.423	-8.35
244.893	-10.25
245.363	-2.55
245.833	-1.05
246.303	-3.75
246.773	2.35
247.243	-4.95
247.712	-2.75
248.182	0.25
248.652	-0.35
249.122	-5.65
249.592	-1.45
250.061	-0.25
250.531	8.55
251.001	-9.95
251.471	2.05
251.94	0.75
252.41	-3.55
252.879	-6.95
253.349	3.15
253.818	3.25
254.288	4.85
254.757	0.25
255.227	-9.55
255.696	-5.65
256.166	3.05
256.635	-3.35
257.105	-1.45
257.574	-2.25
258.043	-3.55
258.513	-5.65
258.982	-2.25
259.451	-11.15
259.92	0.95
260.389	1.25
260.859	7.95
261.328	2.55
261.797	-1.05
262.266	-3.45
262.735	5.85
263.204	-2.65
263.673	-2.35
264.142	0.45
264.611	-6.95
265.08	-4.85
265.549	1.45
266.018	2.65
266.487	-9.95
266.955	-11.25
267.424	-6.25
267.893	1.95
268.362	-5.45
268.83	-2.25
269.299	6.95
269.768	1.35
270.236	3.15
270.705	-1.05
271.174	-4.95
271.642	1.75
272.111	-0.15
272.579	1.25
273.048	-0.65
273.516	5.95
273.985	1.35
274.453	-0.35
274.922	6.15
275.39	-1.45
275.858	-6.55
276.327	5.15
276.795	5.65
277.263	-2.25
277.731	3.55
278.2	-1.45
278.668	5.65
279.136	0.75
279.604	-7.65
280.072	0.45
280.54	-0.65
281.008	6.75
281.477	5.85
281.945	0.25
282.413	7.75
282.881	4.85
283.348	-1.25
283.816	7.05
284.284	6.35
284.752	10.05
285.22	8.05
285.688	7.25
286.156	2.45
286.623	14.85
287.091	-0.15
287.559	7.15
288.026	6.15
288.494	11.65
288.962	-3.55
289.429	-0.15
289.897	11.35
290.364	5.55
290.832	10.35
291.3	7.65
291.767	13.55
292.234	10.25
292.702	5.95
293.169	3.25
293.637	13.05
294.104	12.05
294.571	-0.55
295.039	3.85
295.506	4.45
295.973	6.15
296.44	7.05
296.908	3.45
297.375	9.65
297.842	15.35
298.309	10.65
298.776	8.65
299.243	9.95
299.71	-0.85
300.177	9.85
300.644	11.15
301.111	8.45
301.578	12.75
302.045	9.65
302.512	16.95
302.979	13.75
303.446	10.05
303.913	8.25
304.379	7.95
304.846	17.25
305.313	16.75
305.78	14.05
306.246	15.25
306.713	17.45
307.18	13.55
307.646	18.95
308.113	20.75
308.579	11.45
309.046	15.05
309.512	21.15
309.979	15.85
310.445	15.45
310.912	18.55
311.378	26.05
311.845	16.35
312.311	19.45
312.777	19.85
313.244	21.05
313.71	27.15
314.176	13.65
314.642	16.45
315.109	13.35
315.575	27.45
316.041	23.15
316.507	18.05
316.973	24.65
317.439	22.85
317.905	29.75
318.371	27.45
318.837	20.95
319.303	17.95
319.769	14.85
320.235	18.05
320.701	14.65
321.167	27.95
321.633	10.65
322.099	25.45
322.564	28.25
323.03	23.95
323.496	23.75
323.962	25.85
324.427	22.65
324.893	28.45
325.359	25.95
325.824	29.45
326.29	24.35
326.755	27.65
327.221	32.55
327.686	25.35
328.152	29.15
328.617	32.55
329.083	36.45
329.548	39.25
330.014	32.65
330.479	28.05
330.944	31.55
331.41	29.55
331.875	25.15
332.34	33.05
332.805	28.75
333.271	33.55
333.736	24.85
334.201	38.85
334.666	40.05
335.131	40.15
335.596	32.65
336.061	38.35
336.526	27.15
336.991	33.45
337.456	41.95
337.921	35.85
338.386	34.25
338.851	33.75
339.316	35.25
339.781	32.55
340.246	41.15
340.711	37.55
341.175	37.85
341.64	34.95
342.105	35.65
342.569	43.85
343.034	43.15
343.499	36.85
343.963	37.85
344.428	49.15
344.893	52.05
345.357	46.95
345.822	44.35
346.286	47.65
346.751	52.55
347.215	53.95
347.679	56.35
348.144	68.75
348.608	58.45
349.073	56.45
349.537	56.45
350.001	53.45
350.465	67.55
350.93	64.45
351.394	67.35
351.858	52.45
352.322	64.05
352.786	64.15
353.25	77.35
353.715	82.85
354.179	76.45
354.643	91.75
355.107	94.45
355.571	80.65
356.035	69.95
356.498	90.15
356.962	84.45
357.426	99.45
357.89	86.55
358.354	71.05
358.818	69.65
359.281	65.45
359.745	56.65
360.209	59.65
360.673	66.25
361.136	59.75
361.6	68.35
362.064	59.45
362.527	64.85
362.991	75.85
363.454	65.55
363.918	58.05
364.381	68.25
364.845	66.75
365.308	71.25
365.772	74.25
366.235	68.25
366.698	65.65
367.162	71.65
367.625	71.95
368.088	68.15
368.552	69.35
369.015	64.45
369.478	79.05
369.941	84.35
370.404	75.35
370.867	82.55
371.331	79.35
371.794	83.35
372.257	82.25
372.72	87.35
373.183	89.05
373.646	79.35
374.109	77.05
374.572	85.85
375.035	83.25
375.497	88.45
375.96	85.15
376.423	90.35
376.886	94.35
377.349	93.45
377.811	84.85
378.274	93.55
378.737	88.75
379.199	95.85
379.662	95.35
380.125	95.05
380.587	93.65
381.05	93.45
381.512	102.55
381.975	107.55
382.437	103.55
382.9	100.15
383.362	109.65
383.825	114.65
384.287	108.55
384.75	101.85
385.212	103.75
385.674	113.25
386.136	114.15
386.599	106.55
387.061	106.55
387.523	105.15
387.985	106.55
388.447	117.15
388.91	111.95
389.372	115.65
389.834	120.05
390.296	108.15
390.758	120.15
391.22	123.95
391.682	123.25
392.144	129.65
392.606	127.95
393.068	128.75
393.529	137.15
393.991	121.85
394.453	123.05
394.915	122.45
395.377	123.45
395.838	119.85
396.3	121.75
396.762	125.95
397.224	122.75
397.685	118.15
398.147	121.15
398.608	124.65
399.07	124.35
399.531	118.25
399.993	137.45
400.454	136.75
400.916	138.55
401.377	127.15
401.839	144.95
402.3	146.25
402.762	150.95
403.223	168.45
403.684	157.75
404.145	151.15
404.607	148.15
405.068	148.85
405.529	148.25
405.99	169.45
406.451	159.35
406.913	159.15
407.374	151.35
407.835	151.65
408.296	153.55
408.757	156.05
409.218	170.35
409.679	164.65
410.14	161.65
410.601	162.85
411.062	162.95
411.522	165.65
411.983	165.15
412.444	158.75
412.905	170.95
413.366	175.25
413.826	192.45
414.287	207.05
414.748	253.95
415.208	238.55
415.669	205.55
416.13	199.95
416.59	204.55
417.051	207.25
417.511	212.95
417.972	232.85
418.432	239.15
418.893	281.85
419.353	248.85
419.814	191.05
420.274	174.55
420.734	171.95
421.195	180.25
421.655	182.65
422.115	186.15
422.576	187.95
423.036	188.75
423.496	198.55
423.956	210.55
424.416	228.05
424.876	260.05
425.336	242.25
425.797	249.05
426.257	253.45
426.717	230.65
427.177	224.65
427.637	214.45
428.097	227.95
428.556	228.85
429.016	256.75
429.476	249.85
429.936	260.35
430.396	267.55
430.856	274.05
431.315	293.85
431.775	319.85
432.235	363.95
432.694	325.25
433.154	339.65
433.614	365.45
434.073	311.65
434.533	268.25
434.993	260.45
435.452	260.25
435.912	275.95
436.371	264.05
436.83	264.55
437.29	253.75
437.749	235.55
438.209	236.65
438.668	264.65
439.127	275.35
439.587	250.35
440.046	237.75
440.505	254.05
440.964	260.45
441.424	307.15
441.883	285.55
442.342	256.65
442.801	223.85
443.26	220.85
443.719	226.35
444.178	218.35
444.637	213.35
445.096	212.45
445.555	224.95
446.014	217.95
446.473	224.75
446.932	230.75
447.391	221.95
447.849	227.95
448.308	211.15
448.767	216.55
449.226	231.95
449.685	234.65
450.143	248.45
450.602	238.25
451.061	226.45
451.519	229.55
451.978	235.35
452.436	235.85
452.895	234.75
453.353	253.05
453.812	243.15
454.27	242.55
454.729	237.95
455.187	237.75
455.646	243.05
456.104	243.75
456.562	260.35
457.021	258.45
457.479	255.85
457.937	271.65
458.395	263.85
458.854	248.55
459.312	251.25
459.77	267.75
460.228	249.55
460.686	252.45
461.144	257.05
461.602	239.45
462.06	248.45
462.518	259.95
462.976	259.35
463.434	259.05
463.892	266.85
464.35	275.25
464.808	288.15
465.266	268.85
465.724	263.85
466.181	276.35
466.639	267.05
467.097	285.45
467.555	295.95
468.012	304.65
468.47	312.55
468.928	325.95
469.385	343.75
469.843	350.55
470.3	351.35
470.758	349.35
471.215	379.85
471.673	406.55
472.13	402.45
472.588	414.85
473.045	372.65
473.503	377.25
473.96	400.45
474.417	404.85
474.875	429.45
475.332	464.75
475.789	450.55
476.246	464.35
476.704	488.15
477.161	502.15
477.618	510.95
478.075	544.15
478.532	588.95
478.989	659.55
479.446	781.65
479.903	742.95
480.36	766.85
480.817	814.65
481.274	905.15
481.731	985.85
482.188	1065.95
482.645	1173.35
483.102	1275.65
483.558	1376.15
484.015	1414.15
484.472	1387.85
484.929	1354.05
485.385	1317.85
485.842	1288.35
486.299	1241.45
486.755	1204.05
487.212	1021.05
487.668	879.35
488.125	805.25
488.582	752.15
489.038	723.25
489.494	684.75
489.951	665.75
490.407	649.45
490.864	632.05
491.32	627.95
491.776	635.15
492.233	638.55
492.689	612.85
493.145	599.25
493.602	596.75
494.058	614.25
494.514	609.65
494.97	628.85
495.426	639.95
495.882	619.85
496.338	609.95
496.794	618.95
497.251	606.15
497.707	626.95
498.163	628.95
498.618	624.65
499.074	637.55
499.53	646.95
499.986	660.05
500.442	635.75
500.898	618.75
501.354	607.35
501.809	623.85
502.265	621.85
502.721	617.05
503.177	629.05
503.632	643.25
504.088	646.95
504.543	663.65
504.999	682.45
505.455	652.95
505.91	643.25
506.366	639.45
506.821	636.75
507.277	636.75
507.732	642.55
508.187	638.75
508.643	645.75
509.098	647.75
509.553	654.95
510.009	658.95
510.464	674.95
510.919	700.35
511.375	699.65
511.83	710.65
512.285	727.05
512.74	765.95
513.195	780.55
513.65	775.75
514.105	766.65
514.56	770.15
515.015	786.25
515.47	793.35
515.925	782.95
516.38	786.15
516.835	793.85
517.29	781.65
517.745	776.15
518.2	770.85
518.655	751.95
519.109	746.75
519.564	750.95
520.019	731.15
520.474	727.85
520.928	729.45
521.383	723.05
521.838	714.95
522.292	718.25
522.747	708.55
523.201	713.85
523.656	719.35
524.11	703.75
524.565	697.85
525.019	707.45
525.474	712.25
525.928	705.55
526.382	704.45
526.837	707.55
527.291	711.55
527.745	703.15
528.2	709.05
528.654	699.25
529.108	708.05
529.562	697.95
530.016	695.15
530.47	706.85
530.925	690.85
531.379	701.95
531.833	703.55
532.287	701.35
532.741	709.35
533.195	704.35
533.649	709.45
534.103	715.25
534.556	710.45
535.01	709.85
535.464	721.75
535.918	723.95
536.372	718.35
536.826	715.45
537.279	706.65
537.733	709.15
538.187	721.85
538.64	719.05
539.094	726.45
539.548	737.15
540.001	733.35
540.455	724.05
540.908	733.85
541.362	742.85
541.815	751.35
542.269	764.95
542.722	766.25
543.175	779.85
543.629	773.25
544.082	794.75
544.536	805.95
544.989	802.05
545.442	799.25
545.895	796.95
546.349	800.05
546.802	811.55
547.255	813.55
547.708	821.05
548.161	824.15
548.614	839.55
549.067	836.35
549.52	828.85
549.973	831.45
550.426	825.45
550.879	812.65
551.332	810.55
551.785	826.65
552.238	822.75
552.691	838.25
553.144	855.05
553.596	859.35
554.049	888.35
554.502	905.45
554.955	930.75
555.407	910.45
555.86	916.25
556.313	899.25
556.765	899.35
557.218	908.75
557.67	905.45
558.123	892.15
558.576	889.45
559.028	891.35
559.48	893.05
559.933	901.65
560.385	856.35
560.838	814.65
561.29	806.65
561.742	805.15
562.195	790.55
562.647	783.45
563.099	791.05
563.551	789.55
564.004	796.55
564.456	787.15
564.908	769.55
565.36	754.95
565.812	748.35
566.264	742.95
566.716	719.85
567.168	721.45
567.62	720.05
568.072	718.25
568.524	710.75
568.976	702.95
569.428	692.05
569.88	693.75
570.332	697.75
570.784	703.05
571.235	700.35
571.687	712.35
572.139	708.05
572.59	724.55
573.042	727.45
573.494	727.35
573.945	720.35
574.397	698.65
574.849	705.55
575.3	704.45
575.752	698.15
576.203	696.35
576.655	705.85
577.106	681.65
577.557	683.55
578.009	682.65
578.46	684.45
578.912	679.55
579.363	678.25
579.814	689.75
580.265	688.25
580.717	682.15
581.168	683.75
581.619	693.35
582.07	691.05
582.521	690.85
582.972	687.75
583.423	690.85
583.875	690.75
584.326	700.45
584.777	704.95
585.227	724.45
585.678	737.25
586.129	742.75
586.58	763.25
587.031	779.35
587.482	805.45
587.933	832.15
588.384	814.85
588.834	787.85
589.285	796.25
589.736	791.55
590.186	793.95
590.637	787.65
591.088	765.55
591.538	759.65
591.989	750.55
592.439	747.45
592.89	737.25
593.34	728.75
593.791	727.05
594.241	716.75
594.692	711.05
595.142	713.05
595.593	711.45
596.043	713.65
596.493	721.85
596.943	720.75
597.394	743.45
597.844	736.55
598.294	745.15
598.744	776.45
599.195	809.05
599.645	839.85
600.095	889.25
600.545	946.05
600.995	992.75
601.445	1056.95
601.895	1119.95
602.345	1165.05
602.795	1141.75
603.245	1096.55
603.695	1036.25
604.145	994.85
604.594	931.35
605.044	871.65
605.494	813.65
605.944	770.35
606.393	767.45
606.843	744.35
607.293	743.85
607.743	732.45
608.192	761.55
608.642	772.45
609.091	777.35
609.541	772.65
609.99	788.15
610.44	773.65
610.889	732.55
611.339	722.45
611.788	700.05
612.238	705.15
612.687	721.65
613.136	709.35
613.586	721.25
614.035	718.45
614.484	730.35
614.933	727.65
615.383	721.25
615.832	714.55
616.281	706.75
616.73	689.65
617.179	677.35
617.628	660.05
618.077	648.35
618.526	636.15
618.975	643.85
619.424	626.95
619.873	625.95
620.322	635.65
620.771	624.05
621.22	617.05
621.669	611.75
622.118	596.65
622.567	592.65
623.015	572.95
623.464	575.25
623.913	571.85
624.361	563.65
624.81	563.25
625.259	561.95
625.707	567.35
626.156	577.05
626.604	588.45
627.053	575.95
627.501	581.45
627.95	591.05
628.398	603.95
628.847	585.85
629.295	584.15
629.744	593.35
630.192	591.65
630.64	581.65
631.089	564.75
631.537	546.95
631.985	541.25
632.433	547.95
632.881	537.95
633.33	544.75
633.778	530.15
634.226	539.55
634.674	548.95
635.122	561.55
635.57	557.55
636.018	571.75
636.466	571.25
636.914	568.45
637.362	589.45
637.81	593.85
638.258	600.75
638.705	596.75
639.153	635.95
639.601	633.75
640.049	660.65
640.497	696.85
640.944	715.75
641.392	669.25
641.84	641.05
642.287	602.65
642.735	576.05
643.182	579.05
643.63	572.35
644.078	583.35
644.525	583.55
644.973	593.15
645.42	610.35
645.867	627.05
646.315	643.05
646.762	659.75
647.21	701.85
647.657	711.25
648.104	755.45
648.551	776.25
648.999	829.25
649.446	902.85
649.893	995.35
650.34	1129.55
650.787	1346.15
651.234	1659.55
651.682	2138.85
652.129	2926.55
652.576	4152.25
653.023	6055.25
653.47	8132.45
653.917	10029.15
654.363	11446.85
654.81	12576.15
655.257	11916.35
655.704	7893.35
656.151	4731.75
656.598	3123.15
657.044	2250.75
657.491	1748.35
657.938	1409.55
658.385	1200.75
658.831	1046.05
659.278	936.35
659.724	845.45
660.171	784.25
660.618	714.85
661.064	682.05
661.511	656.85
661.957	661.65
662.404	652.55
662.85	656.95
663.296	628.65
663.743	573.15
664.189	557.35
664.635	541.75
665.082	540.95
665.528	533.95
665.974	534.95
666.42	519.55
666.867	520.35
667.313	495.45
667.759	475.55
668.205	466.45
668.651	467.75
669.097	462.15
669.543	447.85
669.989	453.75
670.435	461.15
670.881	463.25
671.327	472.65
671.773	483.55
672.219	514.35
672.665	578.55
673.11	607.15
673.556	660.35
674.002	693.15
674.448	680.55
674.893	570.05
675.339	495.85
675.785	458.35
676.23	435.35
676.676	410.55
677.122	396.25
677.567	383.95
678.013	392.45
678.458	379.35
678.904	378.75
679.349	370.15
679.794	365.15
680.24	366.35
680.685	356.15
681.131	358.95
681.576	365.55
682.021	372.35
682.466	367.75
682.912	365.95
683.357	369.85
683.802	404.25
684.247	425.65
684.692	473.15
685.137	520.65
685.583	552.05
686.028	583.85
686.473	539.05
686.918	460.85
687.363	432.95
687.807	412.65
688.252	380.35
688.697	371.15
689.142	348.95
689.587	347.95
690.032	344.45
690.477	361.25
690.921	372.05
691.366	399.55
691.811	419.35
692.255	459.15
692.7	490.25
693.145	548.15
693.589	770.75
694.034	1235.35
694.478	1650.55
694.923	1807.75
695.367	2332.95
695.812	1254.55
696.256	520.55
696.701	391.05
697.145	355.75
697.59	343.75
698.034	335.85
698.478	338.65
698.922	338.45
699.367	334.75
699.811	347.35
700.255	374.15
700.699	405.25
701.143	451.05
701.588	491.95
702.032	537.55
702.476	539.35
702.92	513.55
703.364	533.25
703.808	702.45
704.252	1146.65
704.696	1561.05
705.14	1741.65
705.584	2204.95
706.027	1130.45
706.471	549.25
706.915	425.65
707.359	370.95
707.803	329.85
708.246	330.95
708.69	335.25
709.134	330.75
709.577	327.55
710.021	330.75
710.465	325.25
710.908	316.15
711.352	312.55
711.795	324.35
712.239	375.55
712.682	412.25
713.126	431.75
713.569	472.25
714.012	373.25
714.456	318.25
714.899	306.75
715.342	283.25
715.786	280.55
716.229	275.55
716.672	275.15
717.115	261.95
717.558	255.65
718.002	264.35
718.445	277.55
718.888	298.45
719.331	310.25
719.774	327.45
720.217	324.85
720.66	306.75
721.103	282.35
721.546	268.45
721.989	263.25
722.432	236.35
722.874	251.35
723.317	243.35
723.76	237.85
724.203	270.45
724.645	336.85
725.088	476.35
725.531	598.95
725.974	672.35
726.416	570.55
726.859	319.95
727.301	266.75
727.744	250.25
728.187	249.05
728.629	250.75
729.071	255.75
729.514	269.85
729.956	289.85
730.399	298.15
730.841	309.55
731.283	292.25
731.726	287.75
732.168	271.75
732.61	279.55
733.053	297.95
733.495	331.25
733.937	378.95
734.379	436.15
734.821	467.05
735.263	604.05
735.705	938.65
736.148	1751.95
736.59	2800.35
737.032	3173.25
737.474	2590.05
737.916	864.85
738.357	451.45
738.799	342.35
739.241	312.45
739.683	307.05
740.125	312.25
740.567	313.65
741.008	327.55
741.45	332.25
741.892	336.25
742.334	375.85
742.775	379.75
743.217	371.25
743.658	289.75
744.1	269.15
744.542	282.55
744.983	334.45
745.425	366.45
745.866	360.65
746.307	295.05
746.749	286.95
747.19	351.15
747.632	497.15
748.073	1003.25
748.514	2059.15
748.956	3027.95
749.397	3825.35
749.838	3167.35
750.279	3076.65
750.72	1586.75
751.162	586.65
751.603	342.85
752.044	265.65
752.485	228.15
752.926	221.95
753.367	209.15
753.808	211.95
754.249	203.65
754.69	197.65
755.131	192.25
755.572	197.95
756.013	196.75
756.453	196.35
756.894	196.35
757.335	201.05
757.776	204.65
758.216	202.65
758.657	210.35
759.098	211.95
759.538	238.35
759.979	288.75
760.42	404.15
760.86	801.65
761.301	2099.55
761.741	4852.35
762.182	6666.75
762.622	4727.05
763.063	1412.35
763.503	577.15
763.943	350.05
764.384	273.85
764.824	254.95
765.264	231.25
765.705	214.05
766.145	183.95
766.585	184.95
767.025	179.25
767.465	169.35
767.906	188.25
768.346	188.45
768.786	199.25
769.226	232.05
769.666	341.85
770.106	686.95
770.546	1742.75
770.986	2770.45
771.426	2468.75
771.866	848.25
772.306	347.95
772.745	213.25
773.185	180.15
773.625	164.35
774.065	156.15
774.505	169.25
774.944	217.05
775.384	385.35
775.824	590.75
776.263	570.35
776.703	285.15
777.142	159.65
777.582	142.25
778.021	127.45
778.461	131.15
778.9	129.65
779.34	130.25
779.779	115.15
780.219	120.25
780.658	114.15
781.097	115.95
781.537	122.15
781.976	112.85
782.415	113.05
782.855	110.45
783.294	109.55
783.733	103.85
784.172	112.65
784.611	113.05
785.05	114.05
785.489	118.85
785.928	124.25
786.367	132.25
786.806	120.65
787.245	136.55
787.684	144.55
788.123	155.75
788.562	143.45
789.001	131.05
789.44	125.15
789.879	121.55
790.317	126.35
790.756	137.15
791.195	133.55
791.634	160.95
792.072	219.15
792.511	412.75
792.95	1133.85
793.388	2251.95
793.827	1969.45
794.265	713.35
794.704	298.85
795.142	196.85
795.581	159.05
796.019	139.95
796.458	134.75
796.896	124.75
797.334	141.25
797.773	159.85
798.211	240.25
798.649	491.25
799.087	1118.85
799.526	1716.55
799.964	2171.15
800.402	2086.45
800.84	799.45
801.278	332.35
801.716	202.75
802.154	163.75
802.592	158.55
803.03	150.55
803.468	140.45
803.906	149.15
804.344	151.85
804.782	144.35
805.22	143.45
805.658	136.15
806.096	156.35
806.533	165.75
806.971	181.25
807.409	237.75
807.847	353.35
808.284	751.55
808.722	2066.75
809.16	3490.95
809.597	3455.25
810.035	5886.05
810.472	5962.35
810.91	2204.15
811.347	857.05
811.785	433.35
812.222	273.15
812.66	215.25
813.097	174.35
813.535	146.25
813.972	142.15
814.409	127.75
814.846	122.45
815.284	114.05
815.721	113.85
816.158	111.65
816.595	110.65
817.032	163.95
817.47	188.05
817.907	137.15
818.344	103.65
818.781	104.25
819.218	104.45
819.655	138.85
820.092	194.35
820.529	223.25
820.966	177.85
821.403	129.75
821.839	105.45
822.276	101.45
822.713	134.75
823.15	146.45
823.587	126.25
824.023	166.75
824.46	348.05
824.897	985.35
825.333	1414.95
825.77	619.05
826.206	247.85
826.643	146.25
827.08	105.45
827.516	85.75
827.953	83.05
828.389	86.55
828.825	76.75
829.262	68.05
829.698	67.65
830.135	62.35
830.571	68.75
831.007	66.85
831.443	66.95
831.88	64.35
832.316	64.75
832.752	72.85
833.188	63.35
833.624	62.45
834.06	70.85
834.497	77.55
834.933	74.25
835.369	74.65
835.805	74.45
836.241	85.85
836.677	86.15
837.112	90.55
837.548	110.35
837.984	145.45
838.42	225.55
838.856	569.25
839.292	1664.45
839.727	2400.25
840.163	1147.55
840.599	1043.15
841.034	2198.45
841.47	2213.15
841.906	820.45
842.341	355.65
842.777	215.05
843.212	213.75
843.648	190.35
844.083	110.45
844.519	85.35
844.954	69.05
845.39	60.65
845.825	55.85
846.261	64.45
846.696	60.25
847.131	58.75
847.566	64.65
848.002	54.65
848.437	55.25
848.872	62.15
849.307	65.45
849.742	94.05
850.177	203.35
850.613	614.95
851.048	911.85
851.483	395.75
851.918	166.15
852.353	89.35
852.788	57.85
853.223	52.75
853.657	48.65
854.092	47.55
854.527	42.55
854.962	44.75
855.397	44.65
855.832	48.45
856.266	44.05
856.701	40.15
857.136	40.35
857.57	42.55
858.005	53.75
858.44	62.65
858.874	48.05
859.309	51.05
859.743	43.15
860.178	46.25
860.612	43.75
861.047	57.05
861.481	70.25
861.915	80.15
862.35	53.35
862.784	37.55
863.218	40.25
863.653	32.45
864.087	53.45
864.521	52.45
864.955	74.75
865.39	172.35
865.824	185.25
866.258	128.35
866.692	177.45
867.126	186.25
867.56	125.35
867.994	61.05
868.428	37.45
868.862	57.85
869.296	54.75
869.73	64.45
870.164	53.05
870.598	46.25
871.031	41.05
871.465	37.85
871.899	33.35
872.333	21.85
872.766	27.45
873.2	22.75
873.634	29.85
874.067	25.25
874.501	28.95
874.935	36.65
875.368	34.05
875.802	35.25
876.235	21.95
876.669	23.35
877.102	25.55
877.535	26.45
877.969	23.05
878.402	30.35
878.836	20.45
879.269	25.15
879.702	29.85
880.135	18.65
880.569	22.65
881.002	20.95
881.435	25.85
881.868	16.65
882.301	26.65
882.734	20.75
883.167	24.75
883.601	16.45
884.034	11.55
884.467	15.95
884.899	14.25
885.332	22.35
885.765	14.65
886.198	21.65
886.631	18.95
887.064	17.85
887.497	22.25
887.929	20.05
888.362	18.35
888.795	14.25
889.228	24.85
889.66	22.05
890.093	16.85
890.526	17.25
890.958	20.05
891.391	20.85
891.823	21.75
892.256	16.85
892.688	12.55
893.121	22.75
893.553	15.75
893.985	28.25
894.418	18.55
894.85	18.45
895.282	16.65
895.715	13.85
896.147	21.65
896.579	15.25
897.011	16.05
897.444	22.65
897.876	14.75
898.308	19.05
898.74	20.55
899.172	9.25
899.604	19.95
900.036	20.65
900.468	16.85
900.9	13.65
901.332	15.05
901.764	21.65
902.196	24.25
902.628	17.65
903.06	11.25
903.491	31.85
903.923	23.65
904.355	19.35
904.787	30.95
905.218	21.65
905.65	24.95
906.082	13.55
906.513	11.35
906.945	13.55
907.376	16.95
907.808	24.45
908.239	23.05
908.671	21.25
909.102	23.65
909.534	28.45
909.965	49.95
910.397	106.15
910.828	345.05
911.259	490.05
911.691	231.35
912.122	115.55
912.553	61.25
912.984	39.85
913.415	29.95
913.847	21.55
914.278	12.65
914.709	13.95
915.14	19.05
915.571	20.45
916.002	7.05
916.433	23.05
916.864	19.25
917.295	14.15
917.726	24.05
918.157	15.55
918.587	31.45
919.018	26.85
919.449	19.15
919.88	15.85
920.311	33.95
920.741	54.25
921.172	179.35
921.603	160.15
922.033	75.05
922.464	51.55
922.895	25.45
923.325	18.25
923.756	16.55
924.186	18.85
924.617	17.15
925.047	16.75
925.478	23.95
925.908	23.15
926.338	13.25
926.769	13.75
927.199	16.65
927.629	4.35
928.06	18.15
928.49	11.05
928.92	9.95
929.35	9.75
929.78	11.25
930.21	6.55
930.641	10.75
931.071	11.75
931.501	5.75
931.931	9.25
932.361	8.05
932.791	6.95
933.221	7.05
933.651	7.55
934.08	18.95
934.51	33.05
934.94	12.65
935.37	2.35
935.8	7.95
936.229	9.55
936.659	8.75
937.089	3.25
937.519	15.85
937.948	24.55
938.378	22.45
938.807	5.55
939.237	0.25
939.666	6.25
940.096	-4.25
940.525	-5.05
940.955	2.85
941.384	4.25
941.814	-4.35
942.243	0.25
942.672	1.15
943.102	0.05
943.531	1.35
943.96	4.35
944.39	7.75
944.819	6.05
945.248	3.45
945.677	4.65
946.106	3.15
946.535	3.85
946.964	-0.35
947.393	2.95
947.822	2.35
948.251	0.65
948.68	2.75
949.109	9.95
949.538	9.95
949.967	4.55
950.396	3.65
950.825	-1.75
951.254	3.45
951.682	-6.15
952.111	3.45
952.54	0.95
952.969	-5.35
953.397	-2.65
953.826	2.55
954.254	-4.85
954.683	1.35
955.112	-3.25
955.54	-1.75
955.969	8.35
956.397	-0.25
956.826	-3.55
957.254	0.85
957.682	1.75
958.111	9.65
958.539	-3.95
958.967	0.85
959.396	-0.65
959.824	2.65
960.252	1.25
960.68	-5.95
961.109	-5.15
961.537	-5.15
961.965	0.55
962.393	-1.45
962.821	-1.95
963.249	5.45
963.677	4.35
964.105	8.85
964.533	53.45
964.961	39.95
965.389	22.35
965.817	8.65
966.245	6.45
966.672	9.35
967.1	-9.15
967.528	0.05
967.956	-2.55
968.383	2.65
968.811	3.65
969.239	-4.05
969.666	-2.15
970.094	2.95
970.522	3.05
970.949	-4.15
971.377	0.25
971.804	-1.15
972.232	0.35
972.659	-1.75
973.087	6.55
973.514	-0.65
973.941	-2.35
974.369	4.55
974.796	2.85
975.223	0.95
975.651	-6.75
976.078	5.65
976.505	3.45
976.932	4.65
977.359	16.25
977.786	13.95
978.214	-0.15
978.641	-8.75
979.068	-0.05
979.495	-5.85
979.922	4.25
980.349	-0.25
980.776	4.15
981.202	1.45
981.629	8.15
982.056	8.45
982.483	-5.35
982.91	-2.25
983.337	-5.95
983.763	5.15
984.19	-6.95
984.617	-4.95
985.043	-7.55
985.47	-2.65
985.897	-1.85
986.323	-8.05
986.75	0.35
987.176	-3.25
987.603	4.25
988.029	0.85
988.456	-1.15
988.882	4.75
989.308	-12.45
989.735	-2.25
990.161	6.65
990.587	-3.55
991.014	-2.95
991.44	5.05
991.866	0.45
992.292	-4.65
992.719	-0.45
993.145	5.05
993.571	-6.05
993.997	-4.65
994.423	-4.45
994.849	-4.45
995.275	6.25
995.701	1.25
996.127	-2.85
996.553	0.75
996.979	0.05
997.405	1.45
997.83	-3.75
998.256	-5.95
998.682	-1.85
999.108	-11.05
999.534	-1.85
999.959	1.25
1000.385	-1.35
1000.811	-0.75
1001.236	-9.55
1001.662	-5.05
1002.087	-7.55
1002.513	3.75
1002.938	5.65
1003.364	-2.95
1003.789	3.85
1004.215	3.65
1004.64	0.55
1005.066	-0.15
1005.491	-0.95
1005.916	0.65
1006.342	-1.55
1006.767	-9.65
1007.192	2.05
1007.617	-8.65
1008.042	-4.55
1008.468	-2.15
1008.893	-7.25
1009.318	-2.75
1009.743	-0.35
1010.168	0.35
1010.593	1.35
1011.018	-8.35
1011.443	5.45
1011.868	-1.25
1012.293	-2.35
1012.718	-10.05
1013.143	-2.25
1013.567	-0.75
1013.992	-2.45
1014.417	-11.75
1014.842	5.85
1015.267	-2.35
1015.691	-4.55
1016.116	7.15
1016.541	5.35
1016.965	0.65
1017.39	4.65
1017.814	-3.65
1018.239	0.45
1018.663	-9.85
1019.088	-9.95
1019.512	-2.85
1019.937	-0.85
1020.361	-4.85
1020.785	-8.85
1021.21	-5.15
1021.634	-3.35
1022.058	-4.35
1022.483	-0.65
1022.907	-0.55
1023.331	0.55
1023.755	-0.65
1024.179	-0.35
1024.604	-8.95
1025.028	-0.55
1025.452	-5.55
1025.876	2.45
1026.3	4.15
1026.724	-9.75
1027.148	-4.55
1027.572	-5.75
1027.996	-2.25
1028.42	-5.65
1028.843	-2.65
1029.267	-6.25
1029.691	-0.25
1030.115	-9.35
1030.539	-3.95
1030.962	-7.35
1031.386	-8.05
1031.81	-1.05
1032.233	-2.15
1032.657	2.85
1033.08	-1.55
1033.504	-1.05
1033.927	-3.95
1034.351	-3.05
1034.774	-2.25
1035.198	-0.15
1035.621	-6.55
1036.045	-7.05
1036.468	3.55
1036.891	-11.35
1037.315	-7.75
1037.738	-6.05
1038.161	3.15
1038.584	-2.75
1039.008	-3.75
1039.431	-5.35
1039.854	-6.65
1040.277	-3.35
1040.7	-6.35
1041.123	-1.15
1041.546	-3.25
1041.969	-2.75
1042.392	-7.75
1042.815	-2.35
1043.238	1.85
1043.661	1.15
1044.084	-7.45
1044.507	-8.05
1044.93	-4.95
1045.352	-6.95
1045.775	-2.75
1046.198	-3.05
1046.621	-2.75
1047.043	3.65
1047.466	-3.05
1047.889	-2.45
1048.311	-4.45
1048.734	0.05
1049.156	-3.35
1049.579	-4.15
1050.001	-4.45
1050.424	4.35
1050.846	-0.15
1051.269	-3.65
1051.691	-1.85
1052.113	-9.75
1052.536	1.45
1052.958	-5.65
1053.38	-3.95
1053.802	-10.75
1054.225	1.45
1054.647	-5.75
1055.069	-9.85
1055.491	0.65
1055.913	-12.35
1056.335	-0.45
1056.757	-4.75
1057.179	-5.75
1057.601	-6.95
1058.023	2.65
1058.445	-0.15
1058.867	0.35
1059.289	8.45
1059.711	-6.65
1060.133	-8.55
1060.555	-4.35
1060.976	-6.85
1061.398	-16.65
1061.82	-5.85
1062.241	-9.15
1062.663	-4.45
1063.085	-4.15
1063.506	1.15
1063.928	-6.65
1064.35	-9.15
1064.771	-10.15
1065.193	-2.05
1065.614	-7.05
1066.035	5.15
1066.457	-6.25
1066.878	-2.65
1067.3	-4.15
1067.721	-1.15
1068.142	-1.05
1068.564	-4.55
1068.985	-7.45
1069.406	-5.15
1069.827	-3.35
1070.248	-1.15
1070.67	-4.35
1071.091	-3.75
1071.512	-1.25
1071.933	-6.35
1072.354	-1.65
1072.775	-4.85
1073.196	-5.95
1073.617	-4.95
1074.038	-8.25
1074.459	-9.55
1074.88	-12.35
1075.3	-1.55
1075.721	-5.45
1076.142	-0.15
1076.563	-3.35
1076.983	-7.85
1077.404	-4.35
1077.825	-11.35
1078.246	-0.65
1078.666	-10.15
1079.087	-6.05
1079.507	-8.05
1079.928	8.35
1080.348	-1.95
1080.769	-8.05
1081.189	0.85
1081.61	-2.15
1082.03	-6.45
1082.451	-9.45
1082.871	-2.95
1083.291	-5.35
1083.711	-7.45
1084.132	-4.75
1084.552	-6.45
1084.972	0.95
1085.392	-11.55
1085.813	-14.85
1086.233	-6.55
1086.653	-6.35
1087.073	-7.05
1087.493	-8.05
1087.913	-7.85
1088.333	-2.45
1088.753	-1.55
1089.173	-1.25
1089.593	0.25
1090.013	-1.75
1090.433	-1.45
1090.852	0.95
1091.272	0.35
1091.692	-1.15
1092.112	-5.75
1092.531	-6.15
1092.951	-10.55
1093.371	1.85
1093.79	-0.15
1094.21	-1.55
1094.63	-10.45
1095.049	-2.75
1095.469	-0.25
1095.888	0.05
1096.308	1.85
1096.727	2.95
1097.146	-8.25
1097.566	2.45
1097.985	-5.05
1098.405	-4.95
1098.824	-3.15
1099.243	-7.75
1099.662	-7.15
1100.082	-6.05
1100.501	-0.35
1100.92	-1.95
1101.339	-2.85
1101.758	-3.15
