Data from 20171114-ORNL-Ar_H_NY_Subt18_08-09-10-584.txt Node
Date: Tue Nov 14 08:09:10 EST 2017
User: Ender
Spectrometer: HR+D1039
Trigger mode: 0
Integration Time (sec): 2.730000E-2
Scans to average: 10
Electric dark correction enabled: true
Nonlinearity correction enabled: false
Boxcar width: 0
XAxis mode: Wavelengths
Number of Pixels in Spectrum: 2048
>>>>>Begin Spectral Data<<<<<
187.836	-5.55
188.309	-5.55
188.782	-5.55
189.255	1.75
189.728	-1.65
190.201	7.35
190.674	2.25
191.147	0.85
191.619	-4.95
192.092	2.75
192.565	1.65
193.038	-3.85
193.511	1.85
193.984	0.25
194.456	-2.45
194.929	-0.15
195.402	0.55
195.874	-0.65
196.347	3.25
196.82	-4.15
197.292	2.05
197.765	-1.45
198.237	-4.05
198.71	-1.55
199.182	-4.65
199.655	0.15
200.127	4.75
200.6	1.65
201.072	-7.25
201.544	-4.15
202.017	2.85
202.489	3.55
202.961	-1.15
203.433	-1.65
203.906	-3.65
204.378	-7.35
204.85	-7.25
205.322	-5.45
205.794	-4.05
206.266	-8.35
206.739	-11.55
207.211	2.85
207.683	-11.45
208.155	-9.05
208.627	-10.45
209.099	-0.75
209.57	-9.75
210.042	-10.15
210.514	-4.75
210.986	-4.05
211.458	-11.15
211.93	-8.35
212.402	0.25
212.873	-10.95
213.345	-13.75
213.817	-15.25
214.288	-5.55
214.76	-11.95
215.232	-5.95
215.703	-5.15
216.175	-2.45
216.646	-8.75
217.118	-8.95
217.589	-4.85
218.061	-3.05
218.532	-3.05
219.004	-3.65
219.475	-8.45
219.946	-3.95
220.418	-13.85
220.889	-0.55
221.36	-1.35
221.832	-3.65
222.303	-7.85
222.774	-0.15
223.245	-9.15
223.717	-7.45
224.188	-4.45
224.659	-15.65
225.13	-5.95
225.601	-5.45
226.072	-1.95
226.543	-3.65
227.014	-2.25
227.485	-5.75
227.956	-2.65
228.427	-8.15
228.898	-8.05
229.369	0.65
229.839	-7.25
230.31	-10.35
230.781	-2.35
231.252	-2.85
231.722	-5.25
232.193	-5.55
232.664	0.45
233.135	-4.05
233.605	-4.55
234.076	-15.15
234.546	-4.65
235.017	-3.15
235.487	-2.25
235.958	0.65
236.428	-10.85
236.899	-2.25
237.369	-5.85
237.84	-11.15
238.31	2.05
238.78	-4.05
239.251	-6.85
239.721	-12.25
240.191	-8.85
240.662	-4.55
241.132	-0.65
241.602	-10.75
242.072	-3.15
242.542	-0.65
243.013	-6.75
243.483	2.35
243.953	1.35
244.423	-2.25
244.893	-4.35
245.363	0.75
245.833	-2.95
246.303	-5.35
246.773	2.15
247.243	-3.95
247.712	-6.05
248.182	-1.55
248.652	1.95
249.122	-10.55
249.592	-2.55
250.061	2.85
250.531	3.65
251.001	-8.85
251.471	3.95
251.94	9.55
252.41	-2.75
252.879	-5.15
253.349	6.55
253.818	1.95
254.288	-0.75
254.757	-3.05
255.227	-4.05
255.696	-1.05
256.166	-2.35
256.635	-4.05
257.105	1.15
257.574	-5.85
258.043	-1.05
258.513	-12.35
258.982	0.55
259.451	-3.85
259.92	-1.85
260.389	-5.65
260.859	9.15
261.328	2.05
261.797	0.55
262.266	-4.95
262.735	1.85
263.204	5.15
263.673	-3.65
264.142	-1.85
264.611	-2.05
265.08	-3.65
265.549	-5.15
266.018	-0.05
266.487	-0.95
266.955	-5.15
267.424	-2.75
267.893	0.25
268.362	-2.85
268.83	-2.45
269.299	7.05
269.768	-5.55
270.236	-1.15
270.705	-2.75
271.174	1.05
271.642	-2.15
272.111	0.35
272.579	1.95
273.048	1.15
273.516	-3.75
273.985	-1.95
274.453	4.85
274.922	8.45
275.39	1.15
275.858	-5.95
276.327	2.25
276.795	9.65
277.263	-2.75
277.731	10.95
278.2	5.65
278.668	2.05
279.136	4.15
279.604	-1.35
280.072	4.45
280.54	2.65
281.008	2.55
281.477	9.85
281.945	3.35
282.413	-0.35
282.881	7.25
283.348	-1.35
283.816	3.65
284.284	8.55
284.752	10.05
285.22	5.35
285.688	7.85
286.156	4.75
286.623	12.35
287.091	7.45
287.559	11.75
288.026	10.75
288.494	8.65
288.962	-9.35
289.429	5.15
289.897	11.15
290.364	3.65
290.832	11.65
291.3	4.05
291.767	2.95
292.234	14.35
292.702	7.75
293.169	2.75
293.637	18.05
294.104	16.25
294.571	0.55
295.039	4.05
295.506	0.15
295.973	9.05
296.44	3.65
296.908	10.75
297.375	7.75
297.842	9.65
298.309	5.45
298.776	3.75
299.243	8.65
299.71	8.45
300.177	12.45
300.644	15.45
301.111	15.85
301.578	16.55
302.045	11.75
302.512	7.85
302.979	10.75
303.446	12.95
303.913	4.55
304.379	11.25
304.846	17.65
305.313	12.85
305.78	13.85
306.246	12.15
306.713	15.95
307.18	12.45
307.646	7.95
308.113	13.35
308.579	16.45
309.046	18.95
309.512	18.95
309.979	10.15
310.445	19.95
310.912	21.25
311.378	27.25
311.845	21.95
312.311	24.45
312.777	20.95
313.244	22.05
313.71	31.85
314.176	18.65
314.642	20.35
315.109	20.85
315.575	24.65
316.041	28.05
316.507	20.75
316.973	22.85
317.439	19.85
317.905	24.75
318.371	20.05
318.837	25.15
319.303	19.95
319.769	27.05
320.235	23.35
320.701	19.85
321.167	23.45
321.633	19.95
322.099	24.05
322.564	33.05
323.03	28.35
323.496	25.45
323.962	30.15
324.427	27.95
324.893	33.85
325.359	26.65
325.824	26.45
326.29	26.25
326.755	27.95
327.221	25.25
327.686	31.95
328.152	35.95
328.617	33.75
329.083	35.35
329.548	32.55
330.014	35.15
330.479	34.35
330.944	25.95
331.41	34.95
331.875	31.95
332.34	34.65
332.805	30.65
333.271	34.15
333.736	28.55
334.201	36.05
334.666	37.35
335.131	32.35
335.596	38.75
336.061	38.75
336.526	30.35
336.991	32.55
337.456	41.15
337.921	36.35
338.386	37.25
338.851	35.75
339.316	35.85
339.781	36.65
340.246	39.85
340.711	37.25
341.175	35.65
341.64	35.25
342.105	42.05
342.569	41.35
343.034	41.35
343.499	46.45
343.963	37.55
344.428	53.75
344.893	51.15
345.357	49.15
345.822	43.85
346.286	54.55
346.751	58.75
347.215	48.85
347.679	50.95
348.144	80.05
348.608	63.15
349.073	54.15
349.537	56.65
350.001	58.65
350.465	65.95
350.93	66.75
351.394	67.85
351.858	56.35
352.322	71.05
352.786	68.95
353.25	80.25
353.715	82.35
354.179	82.75
354.643	91.95
355.107	95.65
355.571	77.75
356.035	71.05
356.498	89.05
356.962	78.45
357.426	95.45
357.89	88.05
358.354	76.95
358.818	72.05
359.281	62.35
359.745	64.25
360.209	57.25
360.673	63.65
361.136	64.15
361.6	70.75
362.064	65.45
362.527	71.25
362.991	81.45
363.454	66.55
363.918	66.75
364.381	58.55
364.845	73.05
365.308	71.55
365.772	67.95
366.235	75.55
366.698	73.65
367.162	75.05
367.625	68.65
368.088	73.55
368.552	77.15
369.015	76.05
369.478	80.35
369.941	81.15
370.404	71.75
370.867	81.35
371.331	84.05
371.794	94.45
372.257	82.85
372.72	89.75
373.183	89.95
373.646	86.45
374.109	86.55
374.572	85.15
375.035	82.35
375.497	96.45
375.96	92.15
376.423	88.05
376.886	96.75
377.349	93.55
377.811	80.75
378.274	89.85
378.737	84.05
379.199	93.95
379.662	99.05
380.125	105.65
380.587	98.45
381.05	96.35
381.512	108.45
381.975	108.55
382.437	103.95
382.9	101.75
383.362	109.05
383.825	114.45
384.287	110.15
384.75	108.05
385.212	117.05
385.674	123.55
386.136	117.35
386.599	107.15
387.061	111.55
387.523	110.95
387.985	108.95
388.447	117.45
388.91	112.45
389.372	112.35
389.834	121.85
390.296	112.65
390.758	121.25
391.22	123.05
391.682	122.65
392.144	139.25
392.606	129.55
393.068	130.15
393.529	134.15
393.991	126.65
394.453	120.05
394.915	119.65
395.377	120.15
395.838	131.05
396.3	120.05
396.762	124.65
397.224	126.55
397.685	124.15
398.147	121.25
398.608	129.05
399.07	121.55
399.531	129.15
399.993	132.95
400.454	147.15
400.916	139.05
401.377	139.15
401.839	149.25
402.3	144.45
402.762	149.05
403.223	168.25
403.684	160.05
404.145	150.45
404.607	154.75
405.068	150.85
405.529	153.85
405.99	168.65
406.451	163.05
406.913	164.85
407.374	158.15
407.835	151.95
408.296	156.55
408.757	171.25
409.218	173.85
409.679	169.05
410.14	174.35
410.601	163.95
411.062	166.35
411.522	170.25
411.983	163.05
412.444	166.25
412.905	168.05
413.366	178.35
413.826	190.25
414.287	212.35
414.748	259.35
415.208	240.45
415.669	215.65
416.13	204.85
416.59	204.35
417.051	217.55
417.511	222.35
417.972	233.45
418.432	242.15
418.893	285.25
419.353	241.75
419.814	198.15
420.274	178.15
420.734	176.45
421.195	196.35
421.655	182.65
422.115	190.95
422.576	196.15
423.036	192.85
423.496	207.95
423.956	218.05
424.416	228.75
424.876	259.65
425.336	254.65
425.797	258.25
426.257	253.05
426.717	233.05
427.177	227.35
427.637	218.05
428.097	229.25
428.556	237.35
429.016	259.55
429.476	251.05
429.936	258.95
430.396	266.25
430.856	280.25
431.315	295.55
431.775	333.35
432.235	365.55
432.694	343.05
433.154	346.45
433.614	361.75
434.073	312.65
434.533	269.45
434.993	253.95
435.452	274.35
435.912	278.25
436.371	269.95
436.83	271.55
437.29	248.85
437.749	245.15
438.209	241.15
438.668	267.35
439.127	271.85
439.587	263.75
440.046	245.45
440.505	254.75
440.964	262.55
441.424	307.35
441.883	299.95
442.342	254.85
442.801	232.35
443.26	218.05
443.719	223.75
444.178	214.05
444.637	220.25
445.096	215.05
445.555	225.15
446.014	222.55
446.473	225.85
446.932	235.95
447.391	233.25
447.849	229.75
448.308	227.35
448.767	216.95
449.226	234.55
449.685	235.75
450.143	252.75
450.602	245.55
451.061	228.25
451.519	236.55
451.978	234.15
452.436	228.75
452.895	241.15
453.353	248.75
453.812	242.85
454.27	239.25
454.729	242.25
455.187	236.35
455.646	247.25
456.104	256.35
456.562	258.05
457.021	263.75
457.479	259.65
457.937	269.05
458.395	270.75
458.854	259.95
459.312	255.45
459.77	273.55
460.228	259.85
460.686	254.55
461.144	255.25
461.602	253.65
462.06	253.65
462.518	253.95
462.976	256.65
463.434	258.15
463.892	265.45
464.35	277.15
464.808	295.35
465.266	272.55
465.724	267.65
466.181	280.25
466.639	260.75
467.097	288.05
467.555	303.65
468.012	307.75
468.47	312.45
468.928	329.95
469.385	348.15
469.843	346.45
470.3	358.25
470.758	364.85
471.215	386.15
471.673	398.85
472.13	411.45
472.588	416.45
473.045	384.85
473.503	383.85
473.96	403.35
474.417	417.15
474.875	441.35
475.332	474.65
475.789	472.25
476.246	469.25
476.704	488.75
477.161	507.25
477.618	523.05
478.075	557.75
478.532	609.65
478.989	684.05
479.446	782.75
479.903	756.85
480.36	774.05
480.817	828.55
481.274	917.45
481.731	1010.35
482.188	1078.75
482.645	1207.35
483.102	1290.85
483.558	1402.35
484.015	1442.75
484.472	1412.65
484.929	1385.85
485.385	1339.35
485.842	1307.05
486.299	1265.15
486.755	1222.75
487.212	1038.25
487.668	899.95
488.125	828.25
488.582	762.05
489.038	733.75
489.494	706.15
489.951	680.55
490.407	656.55
490.864	637.95
491.32	644.75
491.776	644.65
492.233	650.35
492.689	618.05
493.145	622.55
493.602	600.95
494.058	623.25
494.514	610.95
494.97	643.15
495.426	649.45
495.882	620.45
496.338	618.65
496.794	627.95
497.251	627.35
497.707	631.55
498.163	637.75
498.618	646.25
499.074	643.25
499.53	665.05
499.986	673.15
500.442	639.15
500.898	627.85
501.354	610.45
501.809	629.45
502.265	621.15
502.721	633.25
503.177	647.95
503.632	647.35
504.088	648.85
504.543	681.85
504.999	701.15
505.455	662.05
505.91	643.45
506.366	643.45
506.821	641.55
507.277	648.05
507.732	644.15
508.187	632.75
508.643	645.75
509.098	655.95
509.553	671.15
510.009	682.65
510.464	690.65
510.919	711.65
511.375	718.65
511.83	715.65
512.285	727.55
512.74	767.25
513.195	782.15
513.65	774.95
514.105	777.55
514.56	788.35
515.015	792.95
515.47	804.45
515.925	793.35
516.38	793.95
516.835	809.95
517.29	800.25
517.745	783.95
518.2	783.45
518.655	760.45
519.109	764.95
519.564	752.15
520.019	749.45
520.474	735.35
520.928	736.35
521.383	730.25
521.838	724.65
522.292	721.45
522.747	732.55
523.201	726.25
523.656	712.25
524.11	702.65
524.565	702.85
525.019	705.25
525.474	711.85
525.928	716.35
526.382	714.65
526.837	706.45
527.291	716.55
527.745	718.05
528.2	716.55
528.654	712.85
529.108	694.85
529.562	697.45
530.016	703.05
530.47	709.05
530.925	712.35
531.379	705.55
531.833	711.15
532.287	714.35
532.741	704.95
533.195	711.25
533.649	717.95
534.103	731.35
534.556	725.45
535.01	724.75
535.464	718.05
535.918	735.05
536.372	728.55
536.826	726.25
537.279	713.45
537.733	730.15
538.187	727.05
538.64	726.95
539.094	735.35
539.548	740.65
540.001	741.35
540.455	741.65
540.908	744.65
541.362	752.55
541.815	762.35
542.269	777.55
542.722	777.55
543.175	793.15
543.629	787.35
544.082	800.85
544.536	805.25
544.989	800.55
545.442	807.75
545.895	818.45
546.349	817.45
546.802	822.55
547.255	816.45
547.708	837.05
548.161	831.15
548.614	838.35
549.067	845.85
549.52	837.85
549.973	830.85
550.426	830.95
550.879	819.55
551.332	824.45
551.785	826.95
552.238	835.05
552.691	845.05
553.144	858.75
553.596	859.05
554.049	886.35
554.502	927.05
554.955	932.65
555.407	935.65
555.86	922.95
556.313	920.75
556.765	914.65
557.218	914.85
557.67	908.15
558.123	906.15
558.576	893.45
559.028	898.65
559.48	918.85
559.933	900.85
560.385	867.95
560.838	851.15
561.29	819.75
561.742	811.05
562.195	805.25
562.647	791.15
563.099	801.75
563.551	806.85
564.004	811.55
564.456	792.15
564.908	793.45
565.36	762.95
565.812	745.75
566.264	736.65
566.716	740.35
567.168	724.75
567.62	733.15
568.072	718.05
568.524	716.85
568.976	718.25
569.428	697.85
569.88	697.55
570.332	708.45
570.784	710.65
571.235	712.35
571.687	722.65
572.139	722.45
572.59	737.55
573.042	738.15
573.494	729.45
573.945	732.25
574.397	708.15
574.849	707.25
575.3	716.25
575.752	698.55
576.203	707.05
576.655	704.25
577.106	687.45
577.557	685.55
578.009	692.15
578.46	688.45
578.912	688.55
579.363	693.25
579.814	700.25
580.265	682.55
580.717	687.95
581.168	692.35
581.619	688.15
582.07	699.05
582.521	704.75
582.972	686.05
583.423	699.25
583.875	708.25
584.326	710.45
584.777	719.95
585.227	734.85
585.678	747.65
586.129	765.35
586.58	783.55
587.031	816.05
587.482	850.65
587.933	881.85
588.384	852.75
588.834	820.35
589.285	811.25
589.736	803.25
590.186	794.85
590.637	792.85
591.088	764.95
591.538	768.65
591.989	752.55
592.439	746.95
592.89	740.75
593.34	716.95
593.791	730.05
594.241	726.85
594.692	723.85
595.142	717.55
595.593	715.45
596.043	723.35
596.493	721.35
596.943	729.65
597.394	747.05
597.844	755.15
598.294	761.75
598.744	787.65
599.195	804.55
599.645	853.65
600.095	895.45
600.545	965.25
600.995	1006.25
601.445	1060.65
601.895	1122.85
602.345	1183.65
602.795	1157.85
603.245	1111.25
603.695	1057.35
604.145	990.95
604.594	954.25
605.044	896.65
605.494	825.35
605.944	786.45
606.393	769.05
606.843	755.55
607.293	760.75
607.743	764.25
608.192	772.05
608.642	776.85
609.091	784.95
609.541	784.65
609.99	784.95
610.44	784.75
610.889	745.85
611.339	717.15
611.788	706.45
612.238	715.65
612.687	728.75
613.136	718.25
613.586	740.15
614.035	730.85
614.484	734.05
614.933	729.25
615.383	733.05
615.832	729.85
616.281	726.85
616.73	694.35
617.179	682.95
617.628	668.85
618.077	652.35
618.526	642.55
618.975	643.85
619.424	636.55
619.873	633.25
620.322	642.95
620.771	628.55
621.22	627.85
621.669	615.75
622.118	601.75
622.567	596.55
623.015	593.65
623.464	585.65
623.913	581.55
624.361	572.85
624.81	571.65
625.259	576.05
625.707	575.35
626.156	579.05
626.604	589.55
627.053	586.55
627.501	591.05
627.95	593.25
628.398	601.55
628.847	600.05
629.295	589.45
629.744	602.25
630.192	592.65
630.64	583.05
631.089	570.35
631.537	557.05
631.985	552.15
632.433	556.75
632.881	545.75
633.33	553.85
633.778	546.65
634.226	549.25
634.674	564.55
635.122	573.95
635.57	573.35
636.018	584.25
636.466	587.75
636.914	566.15
637.362	584.15
637.81	594.25
638.258	606.15
638.705	604.05
639.153	642.45
639.601	650.55
640.049	675.35
640.497	696.65
640.944	728.15
641.392	668.15
641.84	649.45
642.287	613.45
642.735	578.45
643.182	588.75
643.63	582.55
644.078	576.45
644.525	591.55
644.973	607.95
645.42	605.25
645.867	632.55
646.315	655.95
646.762	671.15
647.21	702.15
647.657	719.95
648.104	752.75
648.551	773.75
648.999	839.75
649.446	911.25
649.893	1003.55
650.34	1151.15
650.787	1367.95
651.234	1681.15
651.682	2179.85
652.129	2977.55
652.576	4203.75
653.023	6181.95
653.47	8287.75
653.917	10245.55
654.363	11675.55
654.81	12808.05
655.257	12109.05
655.704	8024.75
656.151	4844.75
656.598	3174.55
657.044	2267.45
657.491	1777.75
657.938	1444.75
658.385	1222.95
658.831	1053.35
659.278	949.95
659.724	864.85
660.171	794.35
660.618	723.65
661.064	694.25
661.511	677.85
661.957	657.95
662.404	645.65
662.85	671.55
663.296	633.05
663.743	577.65
664.189	560.25
664.635	548.95
665.082	549.45
665.528	540.75
665.974	542.05
666.42	527.45
666.867	523.75
667.313	508.15
667.759	489.05
668.205	476.15
668.651	471.45
669.097	465.05
669.543	463.55
669.989	456.45
670.435	465.25
670.881	463.85
671.327	467.35
671.773	488.15
672.219	523.25
672.665	574.75
673.11	615.25
673.556	665.45
674.002	699.75
674.448	691.05
674.893	585.35
675.339	506.05
675.785	462.95
676.23	432.75
676.676	406.65
677.122	404.55
677.567	386.65
678.013	383.85
678.458	375.95
678.904	384.05
679.349	367.75
679.794	375.95
680.24	373.05
680.685	366.85
681.131	369.95
681.576	372.35
682.021	369.55
682.466	372.65
682.912	359.95
683.357	374.95
683.802	397.75
684.247	437.95
684.692	477.85
685.137	524.55
685.583	566.95
686.028	596.45
686.473	544.15
686.918	466.55
687.363	438.35
687.807	423.55
688.252	388.35
688.697	368.05
689.142	351.05
689.587	355.85
690.032	343.85
690.477	358.75
690.921	367.85
691.366	401.25
691.811	422.05
692.255	460.65
692.7	484.05
693.145	558.05
693.589	755.55
694.034	1239.85
694.478	1663.85
694.923	1845.55
695.367	2370.35
695.812	1272.45
696.256	529.95
696.701	395.45
697.145	365.45
697.59	346.15
698.034	334.15
698.478	344.55
698.922	343.35
699.367	339.75
699.811	349.35
700.255	372.55
700.699	408.75
701.143	443.95
701.588	503.15
702.032	543.15
702.476	541.55
702.92	527.05
703.364	530.15
703.808	697.55
704.252	1155.75
704.696	1570.65
705.14	1770.25
705.584	2242.25
706.027	1137.55
706.471	561.45
706.915	419.55
707.359	368.95
707.803	339.35
708.246	333.95
708.69	328.25
709.134	329.25
709.577	324.05
710.021	339.85
710.465	326.35
710.908	316.15
711.352	317.35
711.795	330.65
712.239	377.15
712.682	409.55
713.126	430.75
713.569	471.95
714.012	371.35
714.456	317.65
714.899	303.85
715.342	291.75
715.786	274.45
716.229	276.65
716.672	266.45
717.115	265.45
717.558	263.05
718.002	273.25
718.445	278.75
718.888	301.45
719.331	304.35
719.774	326.15
720.217	318.35
720.66	295.35
721.103	283.15
721.546	267.15
721.989	263.75
722.432	242.35
722.874	255.85
723.317	236.95
723.76	249.55
724.203	279.85
724.645	344.55
725.088	477.45
725.531	610.15
725.974	674.55
726.416	578.35
726.859	318.65
727.301	257.55
727.744	245.95
728.187	250.35
728.629	250.05
729.071	262.05
729.514	280.55
729.956	288.95
730.399	299.25
730.841	306.15
731.283	296.95
731.726	289.25
732.168	283.55
732.61	285.95
733.053	313.65
733.495	337.65
733.937	382.75
734.379	431.55
734.821	477.15
735.263	601.35
735.705	934.45
736.148	1770.05
736.59	2828.25
737.032	3219.65
737.474	2632.95
737.916	866.95
738.357	457.05
738.799	346.65
739.241	309.35
739.683	304.55
740.125	312.95
740.567	322.45
741.008	340.25
741.45	333.75
741.892	332.75
742.334	366.15
742.775	381.35
743.217	368.25
743.658	296.45
744.1	271.45
744.542	287.15
744.983	342.15
745.425	364.95
745.866	361.15
746.307	296.35
746.749	298.15
747.19	348.65
747.632	516.15
748.073	1003.85
748.514	2090.45
748.956	3077.95
749.397	3873.65
749.838	3216.95
750.279	3129.75
750.72	1600.95
751.162	597.75
751.603	347.05
752.044	266.95
752.485	229.75
752.926	222.15
753.367	218.65
753.808	202.55
754.249	200.35
754.69	188.05
755.131	195.65
755.572	193.95
756.013	189.65
756.453	197.65
756.894	197.65
757.335	197.05
757.776	210.15
758.216	209.65
758.657	214.95
759.098	215.45
759.538	240.45
759.979	289.95
760.42	416.65
760.86	814.55
761.301	2120.15
761.741	4912.25
762.182	6772.35
762.622	4767.35
763.063	1418.55
763.503	581.45
763.943	347.65
764.384	291.85
764.824	267.95
765.264	240.85
765.705	221.35
766.145	191.35
766.585	182.65
767.025	186.35
767.465	177.75
767.906	193.15
768.346	200.75
768.786	211.85
769.226	234.65
769.666	344.25
770.106	699.55
770.546	1743.85
770.986	2807.85
771.426	2490.45
771.866	861.75
772.306	352.95
772.745	221.95
773.185	169.15
773.625	170.55
774.065	157.25
774.505	165.15
774.944	216.25
775.384	387.65
775.824	618.15
776.263	591.65
776.703	291.85
777.142	162.55
777.582	141.65
778.021	130.95
778.461	127.55
778.9	134.25
779.34	131.45
779.779	124.45
780.219	111.35
780.658	112.35
781.097	114.55
781.537	119.75
781.976	116.35
782.415	108.45
782.855	111.95
783.294	109.75
783.733	108.45
784.172	113.95
784.611	108.45
785.05	114.35
785.489	122.25
785.928	127.75
786.367	124.95
786.806	124.55
787.245	139.55
787.684	141.15
788.123	152.15
788.562	140.95
789.001	134.75
789.44	129.75
789.879	127.25
790.317	125.05
790.756	139.75
791.195	132.15
791.634	163.75
792.072	218.45
792.511	412.45
792.95	1132.45
793.388	2276.55
793.827	1984.05
794.265	706.05
794.704	303.85
795.142	193.95
795.581	166.55
796.019	148.75
796.458	136.25
796.896	137.95
797.334	145.85
797.773	163.55
798.211	239.35
798.649	500.45
799.087	1124.35
799.526	1737.45
799.964	2196.15
800.402	2102.05
800.84	812.05
801.278	335.65
801.716	196.75
802.154	159.15
802.592	150.55
803.03	150.35
803.468	143.05
803.906	159.95
804.344	167.55
804.782	151.15
805.22	144.75
805.658	139.95
806.096	157.35
806.533	166.05
806.971	185.05
807.409	238.25
807.847	355.55
808.284	761.45
808.722	2097.95
809.16	3536.65
809.597	3486.85
810.035	5931.55
810.472	6060.85
810.91	2244.55
811.347	870.55
811.785	443.05
812.222	275.75
812.66	204.15
813.097	178.75
813.535	159.05
813.972	135.65
814.409	124.95
814.846	117.35
815.284	118.05
815.721	109.15
816.158	110.45
816.595	118.35
817.032	166.55
817.47	191.65
817.907	132.25
818.344	104.35
818.781	103.25
819.218	104.15
819.655	135.95
820.092	200.15
820.529	225.25
820.966	181.95
821.403	130.85
821.839	105.25
822.276	95.75
822.713	129.45
823.15	151.75
823.587	128.55
824.023	164.25
824.46	340.55
824.897	985.55
825.333	1435.65
825.77	617.25
826.206	243.15
826.643	144.65
827.08	110.75
827.516	87.55
827.953	84.35
828.389	81.65
828.825	69.55
829.262	73.05
829.698	70.05
830.135	67.85
830.571	71.95
831.007	62.75
831.443	67.55
831.88	66.15
832.316	66.05
832.752	68.75
833.188	62.95
833.624	72.05
834.06	68.95
834.497	69.85
834.933	75.85
835.369	79.85
835.805	71.95
836.241	78.55
836.677	85.25
837.112	90.45
837.548	110.85
837.984	144.15
838.42	222.65
838.856	559.15
839.292	1674.35
839.727	2435.95
840.163	1162.35
840.599	1045.55
841.034	2232.65
841.47	2226.75
841.906	829.05
842.341	357.75
842.777	213.65
843.212	216.65
843.648	190.15
844.083	122.45
844.519	87.45
844.954	72.35
845.39	59.95
845.825	57.85
846.261	62.25
846.696	54.95
847.131	54.85
847.566	58.15
848.002	55.85
848.437	50.65
848.872	61.45
849.307	65.75
849.742	91.85
850.177	209.25
850.613	620.35
851.048	924.15
851.483	402.25
851.918	164.25
852.353	90.45
852.788	58.55
853.223	50.35
853.657	53.85
854.092	52.95
854.527	40.45
854.962	31.95
855.397	46.95
855.832	53.25
856.266	38.85
856.701	39.35
857.136	33.45
857.57	48.65
858.005	59.35
858.44	60.15
858.874	47.85
859.309	52.65
859.743	39.25
860.178	51.25
860.612	40.35
861.047	55.85
861.481	72.45
861.915	79.65
862.35	48.25
862.784	36.95
863.218	39.65
863.653	32.45
864.087	42.85
864.521	54.85
864.955	70.65
865.39	160.15
865.824	188.65
866.258	118.15
866.692	184.05
867.126	195.75
867.56	114.85
867.994	56.75
868.428	45.05
868.862	51.55
869.296	57.55
869.73	62.85
870.164	53.85
870.598	49.65
871.031	32.65
871.465	33.85
871.899	31.45
872.333	20.45
872.766	32.35
873.2	22.95
873.634	27.95
874.067	25.15
874.501	28.85
874.935	34.85
875.368	29.85
875.802	26.95
876.235	24.25
876.669	25.05
877.102	22.35
877.535	25.85
877.969	22.05
878.402	22.55
878.836	21.85
879.269	24.95
879.702	23.15
880.135	22.25
880.569	27.85
881.002	22.45
881.435	24.65
881.868	17.75
882.301	25.45
882.734	25.25
883.167	24.65
883.601	19.85
884.034	22.65
884.467	16.65
884.899	21.85
885.332	18.05
885.765	14.75
886.198	12.45
886.631	20.15
887.064	17.65
887.497	15.35
887.929	20.15
888.362	17.05
888.795	12.35
889.228	22.55
889.66	21.95
890.093	13.15
890.526	18.55
890.958	17.25
891.391	19.85
891.823	26.95
892.256	18.55
892.688	11.25
893.121	18.15
893.553	20.85
893.985	21.15
894.418	19.45
894.85	12.95
895.282	15.75
895.715	11.85
896.147	18.55
896.579	12.45
897.011	16.25
897.444	17.25
897.876	15.55
898.308	23.35
898.74	16.55
899.172	13.15
899.604	24.25
900.036	17.35
900.468	12.75
900.9	18.15
901.332	21.55
901.764	19.65
902.196	14.35
902.628	16.25
903.06	17.65
903.491	25.05
903.923	21.55
904.355	22.45
904.787	26.25
905.218	24.35
905.65	21.45
906.082	14.35
906.513	12.85
906.945	13.35
907.376	12.85
907.808	15.45
908.239	14.15
908.671	19.65
909.102	23.45
909.534	29.05
909.965	47.95
910.397	97.75
910.828	335.15
911.259	499.85
911.691	236.35
912.122	112.75
912.553	59.05
912.984	31.95
913.415	28.25
913.847	26.05
914.278	12.65
914.709	14.15
915.14	16.35
915.571	11.85
916.002	13.05
916.433	17.05
916.864	10.85
917.295	20.95
917.726	14.65
918.157	22.95
918.587	28.25
919.018	30.45
919.449	21.95
919.88	24.45
920.311	34.75
920.741	53.75
921.172	181.05
921.603	160.95
922.033	77.55
922.464	52.55
922.895	23.45
923.325	21.25
923.756	8.75
924.186	15.65
924.617	20.55
925.047	17.35
925.478	21.15
925.908	23.05
926.338	7.85
926.769	11.95
927.199	15.35
927.629	4.65
928.06	18.35
928.49	13.45
928.92	16.05
929.35	13.85
929.78	13.65
930.21	3.55
930.641	5.75
931.071	4.45
931.501	2.05
931.931	7.45
932.361	2.25
932.791	6.05
933.221	0.25
933.651	0.75
934.08	16.25
934.51	28.85
934.94	8.15
935.37	14.15
935.8	13.25
936.229	10.75
936.659	12.45
937.089	3.65
937.519	13.35
937.948	21.85
938.378	20.95
938.807	15.75
939.237	-0.15
939.666	7.05
940.096	-7.55
940.525	4.95
940.955	0.65
941.384	4.45
941.814	-7.95
942.243	0.15
942.672	1.95
943.102	-2.25
943.531	-3.15
943.96	-1.45
944.39	-2.55
944.819	-2.15
945.248	4.45
945.677	1.15
946.106	10.55
946.535	4.85
946.964	-1.85
947.393	2.15
947.822	0.65
948.251	0.45
948.68	-0.25
949.109	4.95
949.538	6.15
949.967	-2.55
950.396	-0.15
950.825	-0.75
951.254	1.85
951.682	-4.65
952.111	0.55
952.54	3.35
952.969	4.05
953.397	-10.95
953.826	2.75
954.254	-5.55
954.683	3.65
955.112	-3.45
955.54	1.65
955.969	-0.25
956.397	2.65
956.826	-0.25
957.254	4.55
957.682	1.75
958.111	-3.45
958.539	3.35
958.967	-2.05
959.396	-4.85
959.824	-2.65
960.252	7.35
960.68	-4.75
961.109	1.95
961.537	-1.25
961.965	-3.35
962.393	-3.35
962.821	-3.45
963.249	-1.65
963.677	2.75
964.105	4.95
964.533	51.35
964.961	39.15
965.389	22.25
965.817	6.85
966.245	0.15
966.672	0.05
967.1	-9.75
967.528	1.55
967.956	-2.65
968.383	-0.35
968.811	-8.15
969.239	-2.05
969.666	-7.25
970.094	-1.45
970.522	1.05
970.949	5.55
971.377	-5.65
971.804	-3.65
972.232	-2.25
972.659	-0.45
973.087	-7.05
973.514	-6.95
973.941	-8.25
974.369	6.05
974.796	1.85
975.223	0.05
975.651	0.95
976.078	1.35
976.505	-0.85
976.932	4.25
977.359	11.95
977.786	13.65
978.214	4.15
978.641	0.25
979.068	-5.25
979.495	-9.05
979.922	-2.25
980.349	-4.35
980.776	-0.55
981.202	-0.65
981.629	-0.25
982.056	5.05
982.483	-0.95
982.91	5.55
983.337	-9.25
983.763	1.55
984.19	-8.05
984.617	-5.95
985.043	-2.45
985.47	2.05
985.897	-4.75
986.323	-10.55
986.75	1.55
987.176	-5.65
987.603	1.55
988.029	0.75
988.456	-4.65
988.882	-2.05
989.308	-7.25
989.735	-11.45
990.161	-2.45
990.587	-0.75
991.014	4.55
991.44	-0.55
991.866	-4.15
992.292	-7.05
992.719	-0.05
993.145	9.85
993.571	-7.45
993.997	-4.95
994.423	-4.85
994.849	-6.65
995.275	3.55
995.701	-2.45
996.127	-1.85
996.553	-1.05
996.979	-7.45
997.405	-2.75
997.83	-6.95
998.256	-14.15
998.682	-14.45
999.108	-6.05
999.534	-8.65
999.959	-2.25
1000.385	-5.55
1000.811	-0.05
1001.236	-10.25
1001.662	-6.75
1002.087	-8.45
1002.513	5.25
1002.938	1.05
1003.364	-11.45
1003.789	-4.55
1004.215	5.85
1004.64	-1.35
1005.066	-2.35
1005.491	-0.75
1005.916	2.95
1006.342	-8.55
1006.767	-6.55
1007.192	3.45
1007.617	-5.55
1008.042	-1.85
1008.468	-12.15
1008.893	-8.35
1009.318	-5.25
1009.743	-1.95
1010.168	3.35
1010.593	0.75
1011.018	-8.45
1011.443	-1.65
1011.868	0.05
1012.293	-2.65
1012.718	-9.35
1013.143	-2.75
1013.567	-0.55
1013.992	-2.75
1014.417	-11.75
1014.842	1.85
1015.267	-9.85
1015.691	-6.75
1016.116	-1.75
1016.541	-2.95
1016.965	-1.85
1017.39	-1.45
1017.814	-1.45
1018.239	-1.15
1018.663	-9.65
1019.088	-13.55
1019.512	-7.55
1019.937	-2.25
1020.361	-6.95
1020.785	-13.35
1021.21	-0.85
1021.634	-3.45
1022.058	4.55
1022.483	1.65
1022.907	-1.65
1023.331	-8.05
1023.755	-0.85
1024.179	-7.05
1024.604	-11.85
1025.028	-7.35
1025.452	-12.45
1025.876	-4.25
1026.3	-2.35
1026.724	-12.45
1027.148	-3.85
1027.572	-10.15
1027.996	-2.75
1028.42	1.05
1028.843	-0.75
1029.267	-8.95
1029.691	-1.55
1030.115	-9.05
1030.539	-0.95
1030.962	-7.35
1031.386	-10.95
1031.81	1.75
1032.233	1.25
1032.657	0.15
1033.08	-3.55
1033.504	0.85
1033.927	-5.15
1034.351	3.55
1034.774	-8.25
1035.198	-2.25
1035.621	-7.65
1036.045	-3.95
1036.468	3.35
1036.891	-9.15
1037.315	-10.55
1037.738	-6.55
1038.161	0.05
1038.584	-8.65
1039.008	-9.55
1039.431	-7.55
1039.854	-7.55
1040.277	-6.95
1040.7	-12.45
1041.123	-1.95
1041.546	-10.55
1041.969	-10.75
1042.392	-6.45
1042.815	-6.95
1043.238	1.65
1043.661	-0.05
1044.084	-3.95
1044.507	-8.55
1044.93	-6.85
1045.352	-8.15
1045.775	-5.75
1046.198	-4.45
1046.621	-3.95
1047.043	-1.25
1047.466	5.85
1047.889	-0.75
1048.311	-4.75
1048.734	1.85
1049.156	-3.65
1049.579	1.05
1050.001	-8.35
1050.424	-2.55
1050.846	-0.35
1051.269	-3.85
1051.691	-5.05
1052.113	-6.25
1052.536	0.55
1052.958	-2.15
1053.38	-2.95
1053.802	-5.45
1054.225	3.35
1054.647	-12.55
1055.069	-6.45
1055.491	-1.95
1055.913	-13.45
1056.335	-4.75
1056.757	-9.25
1057.179	-10.45
1057.601	-4.45
1058.023	-0.85
1058.445	-3.45
1058.867	-1.35
1059.289	0.75
1059.711	-8.15
1060.133	-6.25
1060.555	-6.85
1060.976	-6.65
1061.398	-10.05
1061.82	-5.05
1062.241	-12.95
1062.663	-8.45
1063.085	-6.55
1063.506	3.85
1063.928	-6.55
1064.35	-3.35
1064.771	-11.35
1065.193	-6.05
1065.614	-10.65
1066.035	-2.75
1066.457	-3.05
1066.878	1.45
1067.3	-5.35
1067.721	-2.95
1068.142	-4.45
1068.564	-0.95
1068.985	-7.55
1069.406	-6.25
1069.827	-4.95
1070.248	1.35
1070.67	-9.55
1071.091	-5.45
1071.512	-7.95
1071.933	-6.65
1072.354	-5.85
1072.775	-7.45
1073.196	-9.35
1073.617	-0.45
1074.038	-7.75
1074.459	-3.75
1074.88	-11.25
1075.3	-2.95
1075.721	-11.45
1076.142	0.55
1076.563	-1.55
1076.983	-17.55
1077.404	-8.75
1077.825	-15.25
1078.246	-8.65
1078.666	-9.05
1079.087	-7.25
1079.507	-4.15
1079.928	-3.25
1080.348	-3.25
1080.769	-3.35
1081.189	-1.75
1081.61	-6.65
1082.03	-6.95
1082.451	-8.65
1082.871	-4.65
1083.291	-9.35
1083.711	-2.45
1084.132	-8.15
1084.552	-4.65
1084.972	-0.95
1085.392	-9.45
1085.813	-12.95
1086.233	-3.95
1086.653	-5.15
1087.073	-6.55
1087.493	-6.85
1087.913	-11.35
1088.333	-9.25
1088.753	-9.15
1089.173	3.05
1089.593	-4.05
1090.013	-1.75
1090.433	0.85
1090.852	-1.65
1091.272	-0.05
1091.692	-4.85
1092.112	-5.05
1092.531	-4.65
1092.951	-12.55
1093.371	-7.55
1093.79	-0.65
1094.21	-10.65
1094.63	-7.55
1095.049	-3.75
1095.469	-6.55
1095.888	-5.65
1096.308	-0.95
1096.727	3.45
1097.146	-10.15
1097.566	-0.75
1097.985	-3.85
1098.405	-1.55
1098.824	-8.25
1099.243	-9.55
1099.662	-8.85
1100.082	-9.75
1100.501	-4.75
1100.92	-10.45
1101.339	-3.95
1101.758	-8.15
