Data from 20171114-ORNL-Ar_H_NY_Subt18_08-08-05-284.txt Node
Date: Tue Nov 14 08:08:05 EST 2017
User: Ender
Spectrometer: HR+D1039
Trigger mode: 0
Integration Time (sec): 2.730000E-2
Scans to average: 10
Electric dark correction enabled: true
Nonlinearity correction enabled: false
Boxcar width: 0
XAxis mode: Wavelengths
Number of Pixels in Spectrum: 2048
>>>>>Begin Spectral Data<<<<<
187.836	1.24
188.309	1.24
188.782	1.24
189.255	-1.16
189.728	-1.96
190.201	3.04
190.674	1.44
191.147	0.34
191.619	0.24
192.092	4.04
192.565	4.24
193.038	-2.96
193.511	0.54
193.984	0.54
194.456	-5.96
194.929	-3.06
195.402	-1.76
195.874	1.14
196.347	-1.36
196.82	-7.46
197.292	0.54
197.765	-1.16
198.237	-4.96
198.71	4.54
199.182	1.74
199.655	2.64
200.127	6.34
200.6	0.14
201.072	0.44
201.544	-4.36
202.017	-6.16
202.489	4.94
202.961	-0.46
203.433	-0.76
203.906	-8.96
204.378	-4.06
204.85	-6.36
205.322	-8.26
205.794	-0.36
206.266	-2.16
206.739	-7.06
207.211	3.44
207.683	-9.66
208.155	-6.46
208.627	-6.86
209.099	-7.76
209.57	-11.86
210.042	-7.06
210.514	-5.26
210.986	-3.66
211.458	-10.56
211.93	-10.06
212.402	1.24
212.873	-6.26
213.345	-1.76
213.817	-13.46
214.288	-2.56
214.76	-11.16
215.232	-2.96
215.703	-6.56
216.175	-4.46
216.646	-6.36
217.118	-2.66
217.589	-1.06
218.061	-1.16
218.532	-2.66
219.004	-4.56
219.475	-3.46
219.946	-9.06
220.418	-2.06
220.889	1.84
221.36	0.94
221.832	-3.66
222.303	-10.16
222.774	4.64
223.245	-7.36
223.717	-7.26
224.188	-4.16
224.659	-7.66
225.13	-6.26
225.601	-5.66
226.072	-4.66
226.543	0.34
227.014	-3.66
227.485	1.64
227.956	-2.26
228.427	-8.36
228.898	-3.76
229.369	1.44
229.839	0.44
230.31	-8.06
230.781	-0.56
231.252	-2.56
231.722	0.34
232.193	-0.76
232.664	-4.86
233.135	2.94
233.605	-2.06
234.076	-4.76
234.546	6.84
235.017	7.04
235.487	-1.96
235.958	-6.46
236.428	-1.16
236.899	-0.46
237.369	4.74
237.84	-0.26
238.31	9.94
238.78	2.84
239.251	0.14
239.721	-0.36
240.191	-4.66
240.662	-5.66
241.132	2.94
241.602	-5.76
242.072	-9.46
242.542	8.64
243.013	-4.86
243.483	7.64
243.953	2.84
244.423	-3.56
244.893	-5.46
245.363	5.94
245.833	3.44
246.303	1.74
246.773	4.64
247.243	1.74
247.712	4.04
248.182	0.84
248.652	8.84
249.122	1.04
249.592	9.64
250.061	16.14
250.531	25.14
251.001	19.34
251.471	20.64
251.94	21.24
252.41	5.04
252.879	5.24
253.349	10.44
253.818	5.04
254.288	0.24
254.757	4.54
255.227	1.14
255.696	2.74
256.166	8.44
256.635	6.24
257.105	9.44
257.574	7.94
258.043	5.24
258.513	5.94
258.982	16.64
259.451	10.14
259.92	10.54
260.389	9.14
260.859	15.54
261.328	8.14
261.797	15.84
262.266	7.24
262.735	13.84
263.204	2.94
263.673	-0.56
264.142	3.14
264.611	-3.76
265.08	-2.16
265.549	-0.06
266.018	9.44
266.487	-4.76
266.955	1.14
267.424	-1.76
267.893	1.14
268.362	1.54
268.83	4.44
269.299	9.74
269.768	7.34
270.236	9.34
270.705	9.94
271.174	5.54
271.642	10.84
272.111	9.74
272.579	14.84
273.048	22.84
273.516	25.14
273.985	24.24
274.453	19.64
274.922	18.14
275.39	7.64
275.858	1.64
276.327	11.74
276.795	12.74
277.263	15.74
277.731	28.04
278.2	45.84
278.668	55.64
279.136	43.54
279.604	11.04
280.072	9.94
280.54	6.44
281.008	3.14
281.477	18.84
281.945	8.94
282.413	15.74
282.881	12.84
283.348	4.44
283.816	10.94
284.284	10.24
284.752	16.64
285.22	8.34
285.688	14.74
286.156	13.34
286.623	47.04
287.091	52.74
287.559	20.54
288.026	15.54
288.494	12.94
288.962	3.14
289.429	5.04
289.897	13.34
290.364	13.54
290.832	18.74
291.3	16.74
291.767	15.34
292.234	21.14
292.702	15.34
293.169	19.94
293.637	23.64
294.104	17.14
294.571	8.94
295.039	19.04
295.506	16.74
295.973	18.64
296.44	7.64
296.908	16.54
297.375	17.24
297.842	24.24
298.309	19.34
298.776	18.04
299.243	18.54
299.71	10.04
300.177	21.84
300.644	21.64
301.111	18.34
301.578	21.94
302.045	16.04
302.512	24.24
302.979	15.34
303.446	24.24
303.913	18.94
304.379	16.34
304.846	23.84
305.313	25.54
305.78	21.54
306.246	30.84
306.713	27.24
307.18	21.74
307.646	27.64
308.113	26.54
308.579	21.44
309.046	25.84
309.512	26.24
309.979	16.64
310.445	24.94
310.912	23.54
311.378	30.54
311.845	29.84
312.311	26.94
312.777	34.94
313.244	28.64
313.71	39.84
314.176	31.84
314.642	29.04
315.109	28.54
315.575	36.34
316.041	43.84
316.507	34.84
316.973	41.74
317.439	29.74
317.905	33.44
318.371	36.34
318.837	31.94
319.303	32.94
319.769	33.74
320.235	33.64
320.701	28.54
321.167	35.44
321.633	32.24
322.099	42.74
322.564	45.44
323.03	38.04
323.496	37.64
323.962	35.94
324.427	38.64
324.893	41.94
325.359	39.24
325.824	32.04
326.29	32.14
326.755	33.14
327.221	41.54
327.686	38.84
328.152	47.24
328.617	43.74
329.083	46.84
329.548	49.24
330.014	48.14
330.479	39.04
330.944	46.04
331.41	37.04
331.875	36.34
332.34	39.44
332.805	47.84
333.271	42.54
333.736	49.44
334.201	52.44
334.666	46.44
335.131	48.74
335.596	50.74
336.061	52.84
336.526	39.04
336.991	48.34
337.456	60.24
337.921	49.44
338.386	45.64
338.851	45.34
339.316	45.34
339.781	47.64
340.246	50.64
340.711	41.14
341.175	49.74
341.64	42.14
342.105	57.54
342.569	47.54
343.034	58.14
343.499	54.24
343.963	51.04
344.428	65.94
344.893	62.44
345.357	61.14
345.822	63.44
346.286	64.44
346.751	71.54
347.215	71.74
347.679	70.14
348.144	95.54
348.608	88.54
349.073	64.34
349.537	68.34
350.001	79.64
350.465	92.14
350.93	77.84
351.394	83.84
351.858	74.74
352.322	83.74
352.786	89.24
353.25	101.54
353.715	117.54
354.179	101.94
354.643	121.74
355.107	121.24
355.571	109.64
356.035	98.84
356.498	120.14
356.962	125.14
357.426	134.14
357.89	114.94
358.354	92.24
358.818	84.94
359.281	83.84
359.745	75.34
360.209	72.74
360.673	71.94
361.136	71.14
361.6	78.64
362.064	81.44
362.527	86.24
362.991	91.64
363.454	79.04
363.918	83.34
364.381	80.54
364.845	83.24
365.308	85.44
365.772	90.84
366.235	80.04
366.698	76.74
367.162	92.74
367.625	82.54
368.088	81.74
368.552	88.74
369.015	78.44
369.478	95.74
369.941	96.64
370.404	105.04
370.867	111.14
371.331	118.14
371.794	124.24
372.257	116.94
372.72	114.74
373.183	112.74
373.646	106.84
374.109	100.64
374.572	100.64
375.035	111.14
375.497	111.34
375.96	105.34
376.423	101.54
376.886	111.04
377.349	114.54
377.811	104.24
378.274	104.34
378.737	106.24
379.199	109.64
379.662	116.44
380.125	123.44
380.587	124.14
381.05	119.84
381.512	130.04
381.975	132.14
382.437	131.04
382.9	129.94
383.362	125.04
383.825	143.84
384.287	145.94
384.75	147.84
385.212	145.24
385.674	141.64
386.136	140.64
386.599	129.74
387.061	133.14
387.523	132.44
387.985	144.94
388.447	147.64
388.91	142.24
389.372	160.24
389.834	154.94
390.296	152.14
390.758	150.34
391.22	167.04
391.682	207.64
392.144	308.14
392.606	233.14
393.068	172.34
393.529	171.34
393.991	157.04
394.453	153.74
394.915	157.74
395.377	198.84
395.838	223.94
396.3	158.64
396.762	138.14
397.224	133.84
397.685	126.64
398.147	130.04
398.608	131.74
399.07	126.14
399.531	139.14
399.993	146.34
400.454	157.84
400.916	145.84
401.377	146.34
401.839	155.24
402.3	158.74
402.762	170.54
403.223	181.64
403.684	166.94
404.145	162.14
404.607	158.04
405.068	163.44
405.529	175.74
405.99	189.34
406.451	182.84
406.913	175.44
407.374	166.14
407.835	169.44
408.296	163.14
408.757	177.84
409.218	195.14
409.679	181.84
410.14	178.34
410.601	176.94
411.062	187.04
411.522	198.74
411.983	193.54
412.444	180.24
412.905	185.74
413.366	185.74
413.826	197.14
414.287	214.84
414.748	262.64
415.208	249.84
415.669	214.14
416.13	206.54
416.59	200.44
417.051	213.64
417.511	215.64
417.972	244.34
418.432	250.94
418.893	292.24
419.353	250.64
419.814	197.34
420.274	193.74
420.734	182.94
421.195	205.84
421.655	198.74
422.115	201.94
422.576	190.64
423.036	207.14
423.496	209.34
423.956	216.74
424.416	233.24
424.876	268.84
425.336	264.84
425.797	265.34
426.257	262.14
426.717	244.34
427.177	238.54
427.637	228.34
428.097	239.34
428.556	247.44
429.016	270.94
429.476	274.34
429.936	280.94
430.396	285.54
430.856	297.24
431.315	317.74
431.775	361.24
432.235	389.34
432.694	356.94
433.154	374.34
433.614	409.74
434.073	353.84
434.533	287.84
434.993	275.34
435.452	286.54
435.912	304.94
436.371	289.44
436.83	289.64
437.29	280.04
437.749	261.24
438.209	251.54
438.668	275.64
439.127	298.94
439.587	268.44
440.046	248.34
440.505	263.44
440.964	282.74
441.424	322.44
441.883	316.34
442.342	265.94
442.801	222.24
443.26	225.04
443.719	222.84
444.178	223.84
444.637	214.94
445.096	220.54
445.555	232.04
446.014	228.94
446.473	238.44
446.932	242.54
447.391	235.34
447.849	233.84
448.308	214.44
448.767	222.04
449.226	233.44
449.685	239.94
450.143	252.04
450.602	240.44
451.061	221.94
451.519	234.64
451.978	238.04
452.436	237.64
452.895	243.84
453.353	255.24
453.812	247.44
454.27	242.54
454.729	246.74
455.187	242.94
455.646	247.74
456.104	251.94
456.562	261.44
457.021	275.34
457.479	261.24
457.937	276.54
458.395	267.74
458.854	253.14
459.312	258.54
459.77	276.84
460.228	260.34
460.686	253.94
461.144	255.34
461.602	251.74
462.06	245.54
462.518	255.74
462.976	254.14
463.434	262.94
463.892	259.34
464.35	276.74
464.808	290.64
465.266	265.04
465.724	271.14
466.181	271.64
466.639	276.14
467.097	293.04
467.555	301.34
468.012	301.64
468.47	317.44
468.928	323.04
469.385	345.44
469.843	347.14
470.3	348.44
470.758	364.64
471.215	395.84
471.673	416.34
472.13	416.64
472.588	423.34
473.045	376.44
473.503	384.84
473.96	397.24
474.417	405.24
474.875	440.04
475.332	474.84
475.789	465.84
476.246	472.24
476.704	494.14
477.161	508.14
477.618	523.84
478.075	570.54
478.532	632.04
478.989	691.84
479.446	821.04
479.903	786.74
480.36	809.84
480.817	875.64
481.274	974.74
481.731	1083.74
482.188	1184.84
482.645	1306.14
483.102	1419.34
483.558	1560.34
484.015	1621.14
484.472	1604.74
484.929	1538.44
485.385	1491.14
485.842	1436.94
486.299	1366.94
486.755	1306.24
487.212	1107.04
487.668	930.54
488.125	857.14
488.582	789.84
489.038	750.24
489.494	711.54
489.951	684.74
490.407	671.04
490.864	657.44
491.32	644.94
491.776	636.44
492.233	642.54
492.689	615.64
493.145	611.14
493.602	601.94
494.058	614.24
494.514	610.84
494.97	638.24
495.426	648.34
495.882	621.94
496.338	609.04
496.794	620.34
497.251	616.74
497.707	636.74
498.163	635.64
498.618	639.74
499.074	648.34
499.53	673.34
499.986	674.64
500.442	652.24
500.898	634.44
501.354	623.74
501.809	642.14
502.265	650.24
502.721	660.04
503.177	677.34
503.632	674.34
504.088	680.04
504.543	716.94
504.999	712.14
505.455	658.94
505.91	623.44
506.366	634.74
506.821	633.34
507.277	628.44
507.732	632.04
508.187	624.44
508.643	638.04
509.098	642.74
509.553	657.54
510.009	669.64
510.464	677.44
510.919	692.14
511.375	698.14
511.83	715.14
512.285	713.14
512.74	760.34
513.195	789.34
513.65	773.34
514.105	767.84
514.56	769.94
515.015	789.44
515.47	799.34
515.925	791.14
516.38	787.24
516.835	786.14
517.29	784.54
517.745	769.04
518.2	759.24
518.655	739.54
519.109	743.74
519.564	744.84
520.019	722.94
520.474	723.74
520.928	726.74
521.383	714.64
521.838	720.14
522.292	706.94
522.747	704.04
523.201	702.94
523.656	691.44
524.11	704.04
524.565	692.64
525.019	688.94
525.474	699.64
525.928	704.34
526.382	696.74
526.837	706.14
527.291	702.64
527.745	706.14
528.2	693.74
528.654	697.04
529.108	693.54
529.562	690.04
530.016	689.44
530.47	691.34
530.925	693.84
531.379	700.94
531.833	718.34
532.287	704.14
532.741	712.14
533.195	706.14
533.649	714.44
534.103	723.34
534.556	712.14
535.01	717.04
535.464	701.74
535.918	714.24
536.372	722.34
536.826	713.64
537.279	714.74
537.733	706.34
538.187	716.64
538.64	715.14
539.094	719.64
539.548	726.04
540.001	722.64
540.455	731.64
540.908	738.94
541.362	735.54
541.815	742.64
542.269	767.54
542.722	761.34
543.175	762.94
543.629	753.64
544.082	776.64
544.536	786.74
544.989	790.14
545.442	798.04
545.895	784.74
546.349	789.44
546.802	801.54
547.255	793.64
547.708	804.44
548.161	812.74
548.614	829.74
549.067	833.84
549.52	819.84
549.973	808.64
550.426	807.84
550.879	795.14
551.332	798.94
551.785	805.04
552.238	812.04
552.691	828.04
553.144	832.94
553.596	848.54
554.049	854.64
554.502	900.04
554.955	894.14
555.407	891.14
555.86	889.44
556.313	883.04
556.765	886.24
557.218	876.74
557.67	877.74
558.123	880.34
558.576	866.64
559.028	878.24
559.48	878.04
559.933	877.14
560.385	835.94
560.838	805.74
561.29	781.84
561.742	780.54
562.195	758.94
562.647	769.94
563.099	782.84
563.551	779.64
564.004	774.04
564.456	778.04
564.908	765.74
565.36	748.24
565.812	742.54
566.264	726.54
566.716	725.54
567.168	715.94
567.62	722.14
568.072	713.24
568.524	694.14
568.976	690.34
569.428	673.24
569.88	674.64
570.332	687.54
570.784	692.24
571.235	680.54
571.687	692.24
572.139	698.34
572.59	709.84
573.042	706.04
573.494	705.94
573.945	696.04
574.397	688.54
574.849	691.24
575.3	690.84
575.752	694.94
576.203	667.94
576.655	689.24
577.106	672.54
577.557	664.74
578.009	670.04
578.46	661.84
578.912	655.54
579.363	657.84
579.814	667.34
580.265	662.44
580.717	672.84
581.168	669.54
581.619	671.84
582.07	680.54
582.521	677.34
582.972	675.34
583.423	680.84
583.875	695.94
584.326	704.94
584.777	758.64
585.227	844.34
585.678	935.54
586.129	1029.94
586.58	1105.64
587.031	1177.74
587.482	1334.34
587.933	1513.74
588.384	1327.94
588.834	986.44
589.285	815.24
589.736	791.64
590.186	769.94
590.637	762.94
591.088	749.04
591.538	736.64
591.989	737.54
592.439	726.54
592.89	731.34
593.34	713.64
593.791	719.84
594.241	720.94
594.692	708.94
595.142	694.84
595.593	707.14
596.043	703.84
596.493	711.64
596.943	727.14
597.394	725.84
597.844	723.14
598.294	731.54
598.744	765.64
599.195	779.24
599.645	813.44
600.095	851.94
600.545	906.74
600.995	975.94
601.445	1021.24
601.895	1095.84
602.345	1126.94
602.795	1115.64
603.245	1065.34
603.695	1005.74
604.145	959.34
604.594	907.14
605.044	858.54
605.494	796.54
605.944	760.84
606.393	750.74
606.843	727.04
607.293	732.44
607.743	740.34
608.192	752.24
608.642	762.94
609.091	767.44
609.541	783.04
609.99	774.84
610.44	774.64
610.889	727.44
611.339	702.24
611.788	690.04
612.238	704.24
612.687	726.04
613.136	729.24
613.586	744.04
614.035	747.34
614.484	753.24
614.933	770.74
615.383	753.74
615.832	755.54
616.281	738.44
616.73	700.14
617.179	670.34
617.628	655.44
618.077	639.14
618.526	625.54
618.975	618.74
619.424	615.74
619.873	620.04
620.322	624.04
620.771	608.84
621.22	604.44
621.669	608.44
622.118	597.54
622.567	586.04
623.015	568.54
623.464	573.44
623.913	562.94
624.361	551.64
624.81	548.74
625.259	550.64
625.707	564.94
626.156	559.04
626.604	567.54
627.053	563.74
627.501	566.24
627.95	567.14
628.398	577.24
628.847	572.74
629.295	576.44
629.744	580.44
630.192	576.24
630.64	575.74
631.089	572.14
631.537	583.74
631.985	596.24
632.433	608.64
632.881	619.64
633.33	665.94
633.778	654.04
634.226	575.34
634.674	571.54
635.122	589.94
635.57	608.64
636.018	636.44
636.466	587.44
636.914	563.34
637.362	570.84
637.81	575.04
638.258	591.44
638.705	581.54
639.153	614.24
639.601	621.14
640.049	637.54
640.497	679.64
640.944	698.04
641.392	642.74
641.84	614.14
642.287	592.24
642.735	573.54
643.182	570.44
643.63	575.94
644.078	595.04
644.525	591.34
644.973	603.84
645.42	607.44
645.867	629.44
646.315	644.14
646.762	665.24
647.21	698.74
647.657	724.14
648.104	762.14
648.551	782.54
648.999	852.84
649.446	935.14
649.893	1027.44
650.34	1186.64
650.787	1426.64
651.234	1782.04
651.682	2297.34
652.129	3190.44
652.576	4618.84
653.023	6815.04
653.47	9297.54
653.917	11540.44
654.363	13240.94
654.81	14557.34
655.257	13867.24
655.704	9036.74
656.151	5349.24
656.598	3441.74
657.044	2450.94
657.491	1882.74
657.938	1502.74
658.385	1263.84
658.831	1088.64
659.278	971.24
659.724	858.64
660.171	801.44
660.618	728.84
661.064	699.74
661.511	678.34
661.957	661.44
662.404	650.54
662.85	661.54
663.296	630.94
663.743	565.34
664.189	546.94
664.635	535.24
665.082	532.84
665.528	528.94
665.974	526.34
666.42	519.14
666.867	508.54
667.313	483.64
667.759	488.44
668.205	482.04
668.651	491.64
669.097	497.34
669.543	501.84
669.989	478.64
670.435	459.44
670.881	450.34
671.327	458.94
671.773	471.34
672.219	491.74
672.665	543.84
673.11	585.54
673.556	627.84
674.002	666.24
674.448	660.74
674.893	544.04
675.339	473.34
675.785	447.34
676.23	422.54
676.676	396.34
677.122	386.04
677.567	378.14
678.013	375.44
678.458	357.74
678.904	362.74
679.349	351.24
679.794	354.34
680.24	354.74
680.685	362.44
681.131	351.24
681.576	340.54
682.021	361.24
682.466	343.64
682.912	344.44
683.357	358.04
683.802	381.24
684.247	424.34
684.692	461.44
685.137	496.34
685.583	536.84
686.028	562.44
686.473	515.14
686.918	446.54
687.363	421.24
687.807	391.64
688.252	365.94
688.697	353.14
689.142	331.04
689.587	330.54
690.032	325.84
690.477	348.44
690.921	359.34
691.366	388.14
691.811	402.44
692.255	431.94
692.7	457.04
693.145	515.14
693.589	709.74
694.034	1158.04
694.478	1554.64
694.923	1736.84
695.367	2252.04
695.812	1190.64
696.256	506.74
696.701	378.24
697.145	352.54
697.59	328.34
698.034	330.44
698.478	333.44
698.922	333.54
699.367	326.74
699.811	344.34
700.255	363.14
700.699	385.74
701.143	428.24
701.588	476.34
702.032	516.24
702.476	513.94
702.92	492.34
703.364	490.64
703.808	658.74
704.252	1054.74
704.696	1475.24
705.14	1668.74
705.584	2118.84
706.027	1067.34
706.471	523.44
706.915	390.84
707.359	355.14
707.803	332.54
708.246	310.34
708.69	316.14
709.134	317.74
709.577	307.34
710.021	322.94
710.465	308.74
710.908	311.44
711.352	303.94
711.795	316.84
712.239	357.94
712.682	387.94
713.126	413.44
713.569	465.94
714.012	375.74
714.456	330.24
714.899	302.94
715.342	276.84
715.786	265.04
716.229	257.04
716.672	252.84
717.115	248.54
717.558	250.54
718.002	257.44
718.445	265.84
718.888	293.54
719.331	299.04
719.774	309.94
720.217	307.44
720.66	291.24
721.103	271.14
721.546	256.64
721.989	244.74
722.432	232.54
722.874	239.04
723.317	233.14
723.76	238.94
724.203	256.24
724.645	321.24
725.088	452.44
725.531	577.44
725.974	636.44
726.416	543.14
726.859	310.24
727.301	247.94
727.744	242.94
728.187	233.14
728.629	228.64
729.071	244.74
729.514	254.94
729.956	277.14
730.399	289.44
730.841	296.04
731.283	272.84
731.726	259.24
732.168	263.94
732.61	272.14
733.053	288.54
733.495	317.74
733.937	355.64
734.379	399.24
734.821	434.24
735.263	548.14
735.705	852.94
736.148	1626.94
736.59	2618.04
737.032	3018.14
737.474	2452.64
737.916	796.34
738.357	420.14
738.799	326.14
739.241	299.84
739.683	288.24
740.125	289.44
740.567	293.84
741.008	325.54
741.45	317.14
741.892	316.14
742.334	351.04
742.775	359.24
743.217	341.04
743.658	279.44
744.1	255.84
744.542	263.84
744.983	309.74
745.425	343.64
745.866	341.74
746.307	288.84
746.749	294.14
747.19	336.74
747.632	469.64
748.073	908.84
748.514	1913.64
748.956	2862.84
749.397	3593.24
749.838	2991.14
750.279	2937.04
750.72	1497.34
751.162	549.44
751.603	319.54
752.044	255.74
752.485	221.84
752.926	211.44
753.367	207.54
753.808	195.94
754.249	188.14
754.69	188.04
755.131	185.54
755.572	179.14
756.013	177.44
756.453	186.74
756.894	188.94
757.335	194.54
757.776	201.64
758.216	191.24
758.657	198.24
759.098	210.04
759.538	230.04
759.979	273.14
760.42	380.44
760.86	738.84
761.301	1905.54
761.741	4510.04
762.182	6328.04
762.622	4444.84
763.063	1296.74
763.503	539.94
763.943	353.54
764.384	351.64
764.824	414.14
765.264	449.54
765.705	321.84
766.145	208.54
766.585	192.74
767.025	178.64
767.465	188.24
767.906	255.84
768.346	326.74
768.786	343.54
769.226	265.24
769.666	332.14
770.106	648.64
770.546	1599.34
770.986	2612.34
771.426	2340.04
771.866	795.44
772.306	327.74
772.745	211.84
773.185	177.64
773.625	170.94
774.065	169.44
774.505	201.64
774.944	330.54
775.384	723.04
775.824	1266.84
776.263	1214.84
776.703	530.74
777.142	233.24
777.582	168.04
778.021	138.04
778.461	140.64
778.9	142.24
779.34	135.44
779.779	121.54
780.219	113.24
780.658	112.74
781.097	110.14
781.537	115.74
781.976	105.54
782.415	104.24
782.855	111.94
783.294	112.44
783.733	107.54
784.172	113.84
784.611	103.54
785.05	107.94
785.489	110.64
785.928	120.44
786.367	124.04
786.806	125.94
787.245	134.04
787.684	132.84
788.123	152.54
788.562	131.54
789.001	129.94
789.44	129.84
789.879	118.64
790.317	121.54
790.756	126.64
791.195	132.14
791.634	144.84
792.072	213.94
792.511	374.14
792.95	1048.64
793.388	2140.54
793.827	1905.54
794.265	676.14
794.704	281.84
795.142	185.94
795.581	150.74
796.019	132.44
796.458	127.44
796.896	122.44
797.334	135.54
797.773	158.54
798.211	231.84
798.649	456.34
799.087	1031.34
799.526	1606.24
799.964	2022.74
800.402	1974.54
800.84	747.44
801.278	307.94
801.716	185.74
802.154	158.14
802.592	147.24
803.03	140.44
803.468	132.84
803.906	144.44
804.344	152.84
804.782	140.34
805.22	135.44
805.658	135.24
806.096	149.44
806.533	161.04
806.971	173.34
807.409	217.74
807.847	318.24
808.284	684.04
808.722	1906.04
809.16	3264.74
809.597	3176.04
810.035	5443.44
810.472	5636.44
810.91	2068.84
811.347	795.44
811.785	404.04
812.222	250.64
812.66	196.34
813.097	155.84
813.535	141.14
813.972	128.34
814.409	121.44
814.846	107.34
815.284	110.24
815.721	108.54
816.158	112.74
816.595	123.54
817.032	179.74
817.47	199.14
817.907	165.64
818.344	159.64
818.781	123.94
819.218	101.44
819.655	128.04
820.092	187.84
820.529	214.64
820.966	178.74
821.403	130.24
821.839	103.74
822.276	106.14
822.713	125.74
823.15	130.74
823.587	118.74
824.023	142.74
824.46	313.54
824.897	916.84
825.333	1344.44
825.77	578.34
826.206	229.54
826.643	136.94
827.08	108.44
827.516	90.64
827.953	74.84
828.389	80.44
828.825	71.74
829.262	68.54
829.698	60.14
830.135	61.54
830.571	61.24
831.007	61.74
831.443	64.84
831.88	61.54
832.316	66.24
832.752	66.44
833.188	70.34
833.624	71.94
834.06	70.94
834.497	67.64
834.933	68.74
835.369	78.14
835.805	66.34
836.241	78.64
836.677	74.44
837.112	87.84
837.548	107.84
837.984	133.34
838.42	208.54
838.856	513.14
839.292	1536.64
839.727	2260.44
840.163	1055.24
840.599	938.64
841.034	2038.84
841.47	2086.54
841.906	763.14
842.341	328.04
842.777	229.94
843.212	327.34
843.648	319.74
844.083	155.14
844.519	91.44
844.954	78.94
845.39	65.84
845.825	60.24
846.261	61.24
846.696	57.74
847.131	48.84
847.566	61.74
848.002	53.74
848.437	52.74
848.872	58.74
849.307	62.74
849.742	79.94
850.177	191.24
850.613	561.84
851.048	860.74
851.483	370.04
851.918	151.14
852.353	86.74
852.788	60.64
853.223	56.14
853.657	53.64
854.092	50.04
854.527	33.84
854.962	43.14
855.397	41.34
855.832	48.14
856.266	44.14
856.701	36.94
857.136	38.84
857.57	41.64
858.005	46.84
858.44	59.74
858.874	46.94
859.309	52.14
859.743	39.74
860.178	45.24
860.612	44.04
861.047	54.04
861.481	66.14
861.915	66.54
862.35	55.14
862.784	41.04
863.218	35.84
863.653	35.84
864.087	47.64
864.521	52.64
864.955	73.14
865.39	156.44
865.824	172.94
866.258	107.54
866.692	161.54
867.126	165.04
867.56	105.74
867.994	52.54
868.428	40.24
868.862	45.44
869.296	53.14
869.73	60.84
870.164	50.04
870.598	48.24
871.031	36.94
871.465	31.14
871.899	32.94
872.333	28.14
872.766	25.54
873.2	26.24
873.634	29.14
874.067	28.64
874.501	27.84
874.935	36.54
875.368	31.54
875.802	29.04
876.235	21.24
876.669	19.44
877.102	26.14
877.535	25.54
877.969	23.74
878.402	23.04
878.836	17.34
879.269	20.54
879.702	23.34
880.135	13.94
880.569	23.94
881.002	27.34
881.435	19.34
881.868	15.24
882.301	21.44
882.734	16.44
883.167	25.94
883.601	24.04
884.034	22.54
884.467	8.44
884.899	15.94
885.332	21.04
885.765	10.54
886.198	16.34
886.631	18.94
887.064	18.24
887.497	18.64
887.929	21.44
888.362	14.04
888.795	16.74
889.228	24.14
889.66	21.94
890.093	23.24
890.526	21.24
890.958	20.34
891.391	22.84
891.823	23.94
892.256	19.14
892.688	12.64
893.121	14.24
893.553	18.24
893.985	25.04
894.418	15.44
894.85	12.04
895.282	15.94
895.715	17.14
896.147	17.84
896.579	20.44
897.011	16.24
897.444	20.04
897.876	12.64
898.308	15.44
898.74	15.34
899.172	14.04
899.604	23.34
900.036	21.74
900.468	13.84
900.9	12.84
901.332	23.04
901.764	12.54
902.196	13.64
902.628	25.74
903.06	17.94
903.491	25.84
903.923	22.54
904.355	20.64
904.787	24.74
905.218	19.64
905.65	22.24
906.082	14.34
906.513	11.44
906.945	7.34
907.376	14.34
907.808	17.84
908.239	19.54
908.671	19.64
909.102	25.34
909.534	26.64
909.965	47.84
910.397	99.74
910.828	313.74
911.259	464.74
911.691	215.14
912.122	107.34
912.553	51.54
912.984	31.54
913.415	20.84
913.847	27.64
914.278	21.24
914.709	12.14
915.14	18.94
915.571	12.74
916.002	8.54
916.433	18.84
916.864	20.94
917.295	16.04
917.726	14.64
918.157	16.24
918.587	29.94
919.018	18.74
919.449	21.74
919.88	25.44
920.311	35.24
920.741	53.34
921.172	158.54
921.603	142.34
922.033	77.84
922.464	46.94
922.895	24.14
923.325	19.74
923.756	18.04
924.186	20.64
924.617	26.34
925.047	49.04
925.478	51.74
925.908	47.54
926.338	23.84
926.769	26.24
927.199	20.54
927.629	9.04
928.06	10.74
928.49	17.94
928.92	13.84
929.35	13.34
929.78	10.94
930.21	8.54
930.641	12.44
931.071	12.84
931.501	0.64
931.931	9.74
932.361	8.24
932.791	3.24
933.221	7.84
933.651	4.54
934.08	20.14
934.51	32.24
934.94	4.54
935.37	10.44
935.8	13.64
936.229	3.84
936.659	8.44
937.089	5.34
937.519	12.34
937.948	23.64
938.378	13.64
938.807	1.74
939.237	7.94
939.666	8.74
940.096	-8.06
940.525	6.04
940.955	-0.26
941.384	3.94
941.814	-3.96
942.243	0.54
942.672	6.04
943.102	0.94
943.531	1.24
943.96	3.34
944.39	-1.16
944.819	0.74
945.248	6.44
945.677	0.64
946.106	5.54
946.535	5.94
946.964	-0.16
947.393	3.04
947.822	-1.56
948.251	-4.46
948.68	1.74
949.109	5.94
949.538	4.94
949.967	1.94
950.396	1.64
950.825	3.54
951.254	2.24
951.682	-12.86
952.111	12.34
952.54	4.34
952.969	-2.76
953.397	-7.96
953.826	1.04
954.254	-1.66
954.683	2.44
955.112	-6.96
955.54	-1.96
955.969	-0.46
956.397	-5.46
956.826	-4.76
957.254	-1.96
957.682	5.04
958.111	0.94
958.539	5.94
958.967	0.94
959.396	0.04
959.824	2.24
960.252	4.14
960.68	-9.86
961.109	-3.46
961.537	-3.76
961.965	-6.26
962.393	2.84
962.821	-8.76
963.249	-3.06
963.677	-0.56
964.105	8.94
964.533	43.34
964.961	42.14
965.389	22.44
965.817	6.64
966.245	0.24
966.672	-0.26
967.1	-12.16
967.528	-2.26
967.956	-3.96
968.383	-0.36
968.811	-6.16
969.239	0.14
969.666	-2.56
970.094	-2.16
970.522	1.94
970.949	-3.76
971.377	0.44
971.804	-5.76
972.232	-0.96
972.659	-3.76
973.087	-1.56
973.514	-4.26
973.941	-5.06
974.369	4.94
974.796	0.84
975.223	-6.26
975.651	-3.26
976.078	-2.66
976.505	-1.46
976.932	-2.26
977.359	15.84
977.786	15.74
978.214	1.14
978.641	-0.16
979.068	-7.86
979.495	-8.06
979.922	-3.36
980.349	-4.46
980.776	0.04
981.202	-2.06
981.629	7.24
982.056	-0.16
982.483	-5.86
982.91	5.44
983.337	-9.66
983.763	2.94
984.19	-7.06
984.617	-5.26
985.043	-3.16
985.47	-0.96
985.897	-0.46
986.323	-3.46
986.75	5.74
987.176	-0.86
987.603	0.54
988.029	-0.36
988.456	-0.86
988.882	1.84
989.308	-7.36
989.735	-2.76
990.161	-0.06
990.587	-12.96
991.014	-2.46
991.44	9.94
991.866	0.64
992.292	-1.66
992.719	-6.76
993.145	2.94
993.571	-10.06
993.997	-8.06
994.423	0.24
994.849	-7.16
995.275	-2.86
995.701	0.14
996.127	-6.36
996.553	0.94
996.979	-0.96
997.405	-5.66
997.83	1.14
998.256	-4.16
998.682	-9.86
999.108	-10.86
999.534	-7.36
999.959	-2.46
1000.385	-8.26
1000.811	0.74
1001.236	-8.36
1001.662	-11.56
1002.087	-12.26
1002.513	-4.46
1002.938	-2.56
1003.364	-4.26
1003.789	-4.86
1004.215	-6.46
1004.64	-1.16
1005.066	1.44
1005.491	-1.26
1005.916	-0.56
1006.342	-4.36
1006.767	-5.96
1007.192	3.44
1007.617	-0.36
1008.042	-6.26
1008.468	-8.06
1008.893	-2.16
1009.318	-6.66
1009.743	-6.16
1010.168	2.54
1010.593	2.04
1011.018	-10.06
1011.443	1.94
1011.868	-1.76
1012.293	0.14
1012.718	-9.06
1013.143	5.84
1013.567	-0.56
1013.992	-6.86
1014.417	-13.16
1014.842	-2.26
1015.267	-2.66
1015.691	-7.56
1016.116	-3.66
1016.541	-1.46
1016.965	-3.86
1017.39	2.74
1017.814	0.24
1018.239	0.24
1018.663	-7.76
1019.088	-9.96
1019.512	-0.76
1019.937	-2.56
1020.361	-9.56
1020.785	-7.96
1021.21	-5.06
1021.634	-1.16
1022.058	-7.36
1022.483	6.24
1022.907	-3.96
1023.331	-3.06
1023.755	-2.76
1024.179	-2.96
1024.604	-7.26
1025.028	-4.16
1025.452	-1.76
1025.876	-0.26
1026.3	-5.06
1026.724	-12.16
1027.148	-4.46
1027.572	-7.26
1027.996	-7.16
1028.42	-5.26
1028.843	-5.36
1029.267	-10.76
1029.691	0.34
1030.115	-5.66
1030.539	-7.06
1030.962	-7.36
1031.386	-11.46
1031.81	-4.26
1032.233	-0.36
1032.657	-4.36
1033.08	-1.66
1033.504	-5.96
1033.927	-7.16
1034.351	2.74
1034.774	-5.16
1035.198	-4.06
1035.621	-9.86
1036.045	-2.96
1036.468	-3.46
1036.891	-9.66
1037.315	-7.96
1037.738	-15.36
1038.161	-3.26
1038.584	-4.26
1039.008	-5.86
1039.431	-4.06
1039.854	-4.06
1040.277	-6.56
1040.7	-9.96
1041.123	1.64
1041.546	-6.66
1041.969	-6.06
1042.392	-7.26
1042.815	3.34
1043.238	0.54
1043.661	1.74
1044.084	-7.06
1044.507	-2.96
1044.93	-10.16
1045.352	-2.96
1045.775	-0.66
1046.198	-3.16
1046.621	-6.36
1047.043	-2.26
1047.466	7.34
1047.889	-3.56
1048.311	-1.66
1048.734	-5.46
1049.156	-2.56
1049.579	-5.36
1050.001	-1.86
1050.424	-2.86
1050.846	-6.26
1051.269	-1.56
1051.691	-10.26
1052.113	-1.46
1052.536	-1.96
1052.958	-3.36
1053.38	-5.46
1053.802	-12.56
1054.225	0.44
1054.647	-7.86
1055.069	-1.66
1055.491	-4.66
1055.913	-7.36
1056.335	-3.76
1056.757	-7.26
1057.179	-3.66
1057.601	-7.96
1058.023	-8.36
1058.445	2.34
1058.867	-2.46
1059.289	-4.96
1059.711	-5.46
1060.133	-9.76
1060.555	-7.46
1060.976	-11.86
1061.398	-8.26
1061.82	-8.76
1062.241	-7.76
1062.663	-8.96
1063.085	-9.86
1063.506	0.14
1063.928	-7.76
1064.35	-4.06
1064.771	-8.96
1065.193	1.24
1065.614	-4.56
1066.035	4.94
1066.457	-7.96
1066.878	2.94
1067.3	-6.76
1067.721	-6.06
1068.142	-1.86
1068.564	-4.96
1068.985	-7.06
1069.406	-11.76
1069.827	-5.56
1070.248	-2.46
1070.67	-11.16
1071.091	-10.46
1071.512	-5.06
1071.933	-2.46
1072.354	-10.16
1072.775	-6.96
1073.196	-5.66
1073.617	-0.26
1074.038	-0.16
1074.459	-2.66
1074.88	-8.06
1075.3	1.14
1075.721	-9.46
1076.142	-2.56
1076.563	-3.16
1076.983	-14.06
1077.404	-9.86
1077.825	-8.86
1078.246	-5.76
1078.666	-9.76
1079.087	-6.46
1079.507	-5.26
1079.928	-1.66
1080.348	-0.36
1080.769	-5.96
1081.189	-1.56
1081.61	-4.26
1082.03	-3.66
1082.451	-7.06
1082.871	-9.06
1083.291	-4.76
1083.711	-7.86
1084.132	-4.86
1084.552	-5.16
1084.972	-2.86
1085.392	-8.36
1085.813	-14.76
1086.233	-11.76
1086.653	-8.76
1087.073	-4.76
1087.493	-11.26
1087.913	-11.46
1088.333	-12.46
1088.753	-1.76
1089.173	-2.46
1089.593	-4.56
1090.013	2.84
1090.433	2.14
1090.852	-2.96
1091.272	-0.56
1091.692	-4.16
1092.112	-6.96
1092.531	-11.16
1092.951	-13.46
1093.371	-6.26
1093.79	2.64
1094.21	-3.86
1094.63	-5.36
1095.049	-2.96
1095.469	2.44
1095.888	-2.96
1096.308	0.74
1096.727	8.14
1097.146	-7.26
1097.566	0.14
1097.985	-7.56
1098.405	-7.16
1098.824	-9.06
1099.243	-4.96
1099.662	-14.16
1100.082	-4.56
1100.501	-0.56
1100.92	-5.46
1101.339	-1.06
1101.758	-0.86
