Data from 20171114-ORNL-Ar_H_NY_Subt18_08-06-40-388.txt Node
Date: Tue Nov 14 08:06:40 EST 2017
User: Ender
Spectrometer: HR+D1039
Trigger mode: 0
Integration Time (sec): 2.730000E-2
Scans to average: 10
Electric dark correction enabled: true
Nonlinearity correction enabled: false
Boxcar width: 0
XAxis mode: Wavelengths
Number of Pixels in Spectrum: 2048
>>>>>Begin Spectral Data<<<<<
187.836	-10.75
188.309	-10.75
188.782	-10.75
189.255	-2.75
189.728	3.55
190.201	-1.55
190.674	-0.05
191.147	4.25
191.619	-4.35
192.092	5.75
192.565	5.95
193.038	-1.95
193.511	2.15
193.984	1.85
194.456	0.15
194.929	4.15
195.402	-4.55
195.874	-1.85
196.347	-2.85
196.82	-6.05
197.292	-0.25
197.765	-2.15
198.237	-4.55
198.71	2.65
199.182	-3.05
199.655	1.95
200.127	-0.35
200.6	-5.35
201.072	-2.25
201.544	-6.85
202.017	-1.35
202.489	0.95
202.961	-7.75
203.433	-7.85
203.906	-12.05
204.378	-3.95
204.85	-1.55
205.322	-10.85
205.794	-1.55
206.266	-4.45
206.739	-7.85
207.211	4.85
207.683	-5.05
208.155	-5.55
208.627	-6.75
209.099	-5.05
209.57	-7.35
210.042	-5.55
210.514	-4.55
210.986	-6.25
211.458	-10.65
211.93	2.25
212.402	-1.45
212.873	-7.85
213.345	-14.65
213.817	-12.85
214.288	-9.25
214.76	-14.05
215.232	-4.25
215.703	-7.95
216.175	-1.25
216.646	-0.05
217.118	-2.05
217.589	-7.85
218.061	-7.65
218.532	-3.85
219.004	-0.45
219.475	-4.15
219.946	-5.55
220.418	-6.65
220.889	0.45
221.36	1.75
221.832	-8.25
222.303	-7.05
222.774	-2.25
223.245	-13.65
223.717	-8.45
224.188	-2.35
224.659	-10.15
225.13	-7.25
225.601	-2.25
226.072	-2.95
226.543	-2.55
227.014	-1.85
227.485	-0.95
227.956	-8.25
228.427	-4.75
228.898	-2.05
229.369	-2.55
229.839	0.95
230.31	-6.15
230.781	6.35
231.252	-2.55
231.722	-5.35
232.193	-3.45
232.664	-1.55
233.135	-2.15
233.605	-0.75
234.076	-9.45
234.546	-3.55
235.017	-0.55
235.487	-8.15
235.958	0.05
236.428	-8.25
236.899	0.95
237.369	-6.35
237.84	-12.05
238.31	-4.55
238.78	-4.05
239.251	-3.25
239.721	-3.85
240.191	2.05
240.662	-9.45
241.132	1.55
241.602	-3.15
242.072	-2.05
242.542	2.55
243.013	-1.05
243.483	5.05
243.953	1.65
244.423	1.35
244.893	-4.85
245.363	3.15
245.833	-3.15
246.303	-6.85
246.773	0.25
247.243	-2.35
247.712	-0.15
248.182	4.45
248.652	7.05
249.122	-7.65
249.592	-4.45
250.061	0.65
250.531	10.05
251.001	2.95
251.471	3.05
251.94	5.75
252.41	-5.25
252.879	-2.05
253.349	7.75
253.818	7.85
254.288	5.15
254.757	-4.55
255.227	-5.75
255.696	-7.15
256.166	2.65
256.635	2.35
257.105	7.55
257.574	2.35
258.043	0.55
258.513	1.65
258.982	4.75
259.451	-8.45
259.92	-1.55
260.389	2.05
260.859	12.35
261.328	2.25
261.797	1.65
262.266	-2.65
262.735	5.55
263.204	3.15
263.673	0.15
264.142	0.05
264.611	3.35
265.08	-3.05
265.549	-1.35
266.018	3.75
266.487	4.35
266.955	0.25
267.424	-1.75
267.893	2.95
268.362	-2.55
268.83	0.25
269.299	13.35
269.768	4.25
270.236	1.15
270.705	-3.95
271.174	-2.45
271.642	0.35
272.111	1.55
272.579	-0.25
273.048	9.85
273.516	5.25
273.985	5.15
274.453	4.35
274.922	15.35
275.39	7.15
275.858	-0.45
276.327	8.55
276.795	12.05
277.263	7.75
277.731	9.45
278.2	6.15
278.668	8.15
279.136	11.65
279.604	2.15
280.072	9.35
280.54	9.05
281.008	6.45
281.477	10.75
281.945	5.25
282.413	13.45
282.881	10.55
283.348	1.55
283.816	10.95
284.284	9.15
284.752	17.75
285.22	17.85
285.688	14.65
286.156	10.05
286.623	11.45
287.091	11.15
287.559	12.85
288.026	6.35
288.494	11.45
288.962	2.55
289.429	13.25
289.897	15.85
290.364	12.45
290.832	15.05
291.3	13.45
291.767	21.05
292.234	19.75
292.702	15.95
293.169	13.65
293.637	20.35
294.104	21.85
294.571	11.95
295.039	10.55
295.506	9.55
295.973	17.05
296.44	13.25
296.908	18.15
297.375	19.25
297.842	14.15
298.309	14.25
298.776	11.55
299.243	14.55
299.71	11.45
300.177	19.15
300.644	24.25
301.111	19.65
301.578	28.95
302.045	24.85
302.512	24.25
302.979	19.55
303.446	21.65
303.913	11.95
304.379	15.15
304.846	19.15
305.313	24.85
305.78	21.55
306.246	25.85
306.713	22.05
307.18	29.85
307.646	25.25
308.113	24.95
308.579	29.35
309.046	25.35
309.512	23.95
309.979	18.55
310.445	30.15
310.912	27.15
311.378	29.55
311.845	26.95
312.311	24.95
312.777	30.55
313.244	28.65
313.71	37.65
314.176	27.15
314.642	29.65
315.109	25.55
315.575	35.75
316.041	39.05
316.507	25.65
316.973	33.55
317.439	28.15
317.905	35.85
318.371	35.45
318.837	33.05
319.303	34.85
319.769	34.95
320.235	27.95
320.701	31.75
321.167	31.65
321.633	28.35
322.099	34.65
322.564	39.25
323.03	37.85
323.496	36.65
323.962	32.75
324.427	33.05
324.893	37.65
325.359	42.25
325.824	34.35
326.29	36.05
326.755	37.75
327.221	37.35
327.686	38.15
328.152	45.95
328.617	40.35
329.083	47.15
329.548	49.55
330.014	45.95
330.479	38.65
330.944	36.95
331.41	40.85
331.875	44.65
332.34	38.85
332.805	44.85
333.271	48.05
333.736	43.25
334.201	46.15
334.666	49.95
335.131	43.95
335.596	57.35
336.061	46.15
336.526	43.45
336.991	44.75
337.456	55.15
337.921	46.15
338.386	45.85
338.851	49.95
339.316	46.65
339.781	48.75
340.246	48.45
340.711	50.65
341.175	56.95
341.64	54.45
342.105	57.95
342.569	56.05
343.034	60.55
343.499	52.15
343.963	51.15
344.428	57.25
344.893	58.95
345.357	60.25
345.822	63.15
346.286	69.45
346.751	73.15
347.215	70.15
347.679	68.35
348.144	93.85
348.608	76.95
349.073	75.55
349.537	77.15
350.001	82.35
350.465	89.25
350.93	83.65
351.394	84.45
351.858	69.95
352.322	88.35
352.786	82.65
353.25	104.05
353.715	113.25
354.179	92.85
354.643	115.95
355.107	117.85
355.571	99.75
356.035	91.75
356.498	116.35
356.962	117.55
357.426	123.15
357.89	110.25
358.354	89.35
358.818	84.85
359.281	83.65
359.745	76.95
360.209	80.95
360.673	71.55
361.136	85.45
361.6	88.75
362.064	79.15
362.527	89.35
362.991	86.05
363.454	76.55
363.918	75.15
364.381	83.75
364.845	84.05
365.308	77.75
365.772	87.05
366.235	86.95
366.698	86.25
367.162	83.55
367.625	84.55
368.088	78.65
368.552	86.95
369.015	90.75
369.478	96.05
369.941	100.65
370.404	85.65
370.867	96.05
371.331	103.05
371.794	111.35
372.257	95.55
372.72	106.95
373.183	102.75
373.646	99.65
374.109	103.15
374.572	100.85
375.035	102.55
375.497	114.25
375.96	102.45
376.423	103.25
376.886	109.35
377.349	110.35
377.811	104.65
378.274	102.15
378.737	98.95
379.199	106.55
379.662	112.15
380.125	113.85
380.587	108.75
381.05	112.45
381.512	114.55
381.975	119.35
382.437	120.65
382.9	121.25
383.362	124.75
383.825	128.75
384.287	128.75
384.75	115.45
385.212	121.65
385.674	132.55
386.136	131.85
386.599	124.95
387.061	126.05
387.523	129.85
387.985	128.25
388.447	140.15
388.91	123.85
389.372	129.15
389.834	136.55
390.296	127.45
390.758	128.95
391.22	137.65
391.682	151.05
392.144	150.05
392.606	148.55
393.068	140.05
393.529	155.25
393.991	143.65
394.453	134.95
394.915	133.05
395.377	139.25
395.838	146.25
396.3	132.65
396.762	147.35
397.224	136.55
397.685	133.85
398.147	140.45
398.608	132.85
399.07	137.55
399.531	141.35
399.993	143.65
400.454	154.75
400.916	151.45
401.377	147.45
401.839	158.75
402.3	159.55
402.762	172.45
403.223	186.95
403.684	182.15
404.145	168.75
404.607	167.35
405.068	162.55
405.529	173.45
405.99	190.35
406.451	181.55
406.913	180.85
407.374	175.65
407.835	167.25
408.296	175.05
408.757	177.25
409.218	191.45
409.679	190.05
410.14	178.45
410.601	183.85
411.062	181.75
411.522	188.65
411.983	178.75
412.444	183.15
412.905	187.85
413.366	194.65
413.826	203.95
414.287	227.05
414.748	279.95
415.208	268.15
415.669	227.15
416.13	221.75
416.59	211.15
417.051	228.25
417.511	229.25
417.972	249.95
418.432	268.55
418.893	308.85
419.353	264.95
419.814	213.65
420.274	188.55
420.734	196.15
421.195	198.25
421.655	204.55
422.115	197.15
422.576	205.55
423.036	208.15
423.496	219.05
423.956	227.95
424.416	244.15
424.876	279.35
425.336	276.35
425.797	279.65
426.257	269.85
426.717	255.15
427.177	246.45
427.637	236.25
428.097	240.25
428.556	251.15
429.016	286.25
429.476	265.55
429.936	290.65
430.396	281.15
430.856	295.25
431.315	321.25
431.775	357.25
432.235	392.15
432.694	357.25
433.154	371.35
433.614	404.45
434.073	354.85
434.533	289.75
434.993	278.85
435.452	288.45
435.912	300.65
436.371	302.45
436.83	289.25
437.29	278.45
437.749	254.15
438.209	257.15
438.668	280.15
439.127	302.75
439.587	284.35
440.046	262.85
440.505	277.45
440.964	290.45
441.424	341.85
441.883	325.25
442.342	278.95
442.801	233.25
443.26	231.25
443.719	233.15
444.178	235.45
444.637	220.55
445.096	230.75
445.555	241.05
446.014	232.35
446.473	247.75
446.932	242.15
447.391	240.35
447.849	237.85
448.308	235.95
448.767	234.35
449.226	254.25
449.685	259.15
450.143	264.25
450.602	258.85
451.061	239.85
451.519	248.65
451.978	243.15
452.436	251.45
452.895	255.35
453.353	265.05
453.812	262.35
454.27	256.25
454.729	260.55
455.187	251.15
455.646	263.85
456.104	256.85
456.562	273.15
457.021	284.75
457.479	276.45
457.937	287.85
458.395	279.25
458.854	269.45
459.312	269.05
459.77	292.55
460.228	277.05
460.686	259.75
461.144	272.35
461.602	264.45
462.06	262.95
462.518	270.55
462.976	273.25
463.434	278.15
463.892	275.45
464.35	291.85
464.808	319.25
465.266	288.45
465.724	289.55
466.181	291.05
466.639	281.85
467.097	314.95
467.555	321.35
468.012	323.95
468.47	330.65
468.928	344.25
469.385	366.85
469.843	370.65
470.3	370.35
470.758	384.55
471.215	412.25
471.673	431.45
472.13	435.25
472.588	432.35
473.045	396.55
473.503	403.45
473.96	426.85
474.417	435.05
474.875	459.55
475.332	502.05
475.789	487.75
476.246	495.85
476.704	515.25
477.161	534.85
477.618	549.15
478.075	590.15
478.532	644.45
478.989	719.75
479.446	836.35
479.903	788.35
480.36	825.45
480.817	876.25
481.274	968.95
481.731	1052.95
482.188	1149.25
482.645	1261.85
483.102	1354.05
483.558	1471.45
484.015	1511.95
484.472	1495.45
484.929	1460.65
485.385	1417.65
485.842	1375.15
486.299	1331.85
486.755	1288.45
487.212	1098.95
487.668	944.65
488.125	869.85
488.582	797.35
489.038	768.55
489.494	742.45
489.951	707.05
490.407	694.45
490.864	683.75
491.32	677.55
491.776	679.65
492.233	678.25
492.689	646.95
493.145	639.95
493.602	628.05
494.058	653.35
494.514	650.35
494.97	671.75
495.426	684.55
495.882	657.75
496.338	655.25
496.794	656.65
497.251	644.35
497.707	680.55
498.163	673.85
498.618	676.25
499.074	678.45
499.53	709.15
499.986	707.05
500.442	679.05
500.898	662.85
501.354	651.25
501.809	664.65
502.265	661.15
502.721	674.25
503.177	674.25
503.632	671.05
504.088	693.55
504.543	705.25
504.999	728.95
505.455	698.55
505.91	682.85
506.366	666.55
506.821	678.35
507.277	667.55
507.732	673.35
508.187	669.55
508.643	676.75
509.098	676.65
509.553	704.55
510.009	718.05
510.464	720.75
510.919	735.65
511.375	737.25
511.83	756.35
512.285	766.75
512.74	813.85
513.195	829.05
513.65	815.75
514.105	828.35
514.56	812.45
515.015	831.85
515.47	840.75
515.925	828.55
516.38	827.35
516.835	844.65
517.29	834.45
517.745	823.65
518.2	806.95
518.655	792.05
519.109	784.25
519.564	794.45
520.019	779.75
520.474	768.75
520.928	777.05
521.383	749.05
521.838	746.85
522.292	760.75
522.747	752.25
523.201	744.05
523.656	740.15
524.11	733.05
524.565	739.65
525.019	731.55
525.474	741.25
525.928	745.15
526.382	739.95
526.837	739.35
527.291	756.35
527.745	741.15
528.2	742.45
528.654	741.95
529.108	734.15
529.562	736.35
530.016	737.95
530.47	740.15
530.925	727.15
531.379	735.75
531.833	735.05
532.287	744.35
532.741	744.65
533.195	740.55
533.649	749.95
534.103	763.75
534.556	756.85
535.01	749.85
535.464	745.65
535.918	751.75
536.372	759.15
536.826	760.55
537.279	740.75
537.733	752.65
538.187	753.35
538.64	761.35
539.094	758.55
539.548	782.75
540.001	772.35
540.455	764.35
540.908	770.25
541.362	785.35
541.815	798.35
542.269	806.85
542.722	805.65
543.175	814.05
543.629	808.15
544.082	818.45
544.536	834.65
544.989	824.75
545.442	845.55
545.895	847.35
546.349	830.15
546.802	843.35
547.255	842.05
547.708	857.05
548.161	866.45
548.614	874.55
549.067	878.45
549.52	875.25
549.973	862.05
550.426	857.05
550.879	847.05
551.332	851.65
551.785	860.15
552.238	852.05
552.691	859.25
553.144	891.05
553.596	904.35
554.049	922.55
554.502	948.95
554.955	969.85
555.407	964.55
555.86	954.15
556.313	943.45
556.765	944.45
557.218	936.75
557.67	948.85
558.123	932.15
558.576	935.35
559.028	940.55
559.48	933.65
559.933	922.45
560.385	905.15
560.838	859.15
561.29	844.65
561.742	846.35
562.195	830.15
562.647	818.05
563.099	825.95
563.551	817.15
564.004	832.05
564.456	816.35
564.908	809.35
565.36	790.75
565.812	778.65
566.264	771.45
566.716	752.45
567.168	744.85
567.62	754.45
568.072	739.45
568.524	735.55
568.976	740.85
569.428	718.35
569.88	720.75
570.332	711.55
570.784	733.35
571.235	726.75
571.687	736.95
572.139	749.95
572.59	748.25
573.042	766.05
573.494	745.05
573.945	757.25
574.397	727.25
574.849	731.75
575.3	738.85
575.752	719.35
576.203	721.15
576.655	727.75
577.106	713.65
577.557	716.35
578.009	706.45
578.46	705.95
578.912	702.35
579.363	699.25
579.814	706.55
580.265	703.75
580.717	710.25
581.168	709.05
581.619	718.85
582.07	722.65
582.521	717.95
582.972	713.45
583.423	719.75
583.875	716.85
584.326	713.65
584.777	728.85
585.227	755.85
585.678	771.25
586.129	795.65
586.58	825.35
587.031	842.75
587.482	875.35
587.933	903.55
588.384	872.15
588.834	836.85
589.285	818.25
589.736	811.55
590.186	810.45
590.637	801.55
591.088	781.95
591.538	777.85
591.989	764.25
592.439	772.25
592.89	756.65
593.34	748.05
593.791	743.55
594.241	733.05
594.692	736.05
595.142	730.65
595.593	722.45
596.043	737.25
596.493	739.55
596.943	738.55
597.394	750.55
597.844	746.75
598.294	774.65
598.744	799.65
599.195	823.25
599.645	870.05
600.095	902.95
600.545	959.75
600.995	1024.55
601.445	1086.45
601.895	1140.55
602.345	1189.25
602.795	1169.85
603.245	1133.85
603.695	1066.95
604.145	1020.75
604.594	966.35
605.044	914.75
605.494	847.55
605.944	798.85
606.393	783.55
606.843	763.95
607.293	773.95
607.743	755.65
608.192	779.75
608.642	782.25
609.091	792.65
609.541	798.75
609.99	812.05
610.44	792.05
610.889	757.65
611.339	735.65
611.788	717.75
612.238	721.35
612.687	729.95
613.136	725.35
613.586	738.15
614.035	737.35
614.484	741.85
614.933	741.55
615.383	743.05
615.832	735.65
616.281	736.55
616.73	699.25
617.179	688.05
617.628	667.15
618.077	659.75
618.526	647.65
618.975	644.35
619.424	649.75
619.873	643.45
620.322	655.05
620.771	633.45
621.22	631.35
621.669	620.05
622.118	603.95
622.567	607.75
623.015	596.35
623.464	589.05
623.913	583.65
624.361	580.15
624.81	578.75
625.259	580.95
625.707	583.25
626.156	585.15
626.604	596.05
627.053	594.05
627.501	595.15
627.95	594.65
628.398	613.35
628.847	591.45
629.295	598.75
629.744	600.05
630.192	594.45
630.64	590.35
631.089	572.35
631.537	558.95
631.985	548.65
632.433	566.35
632.881	547.35
633.33	560.35
633.778	539.15
634.226	546.55
634.674	564.55
635.122	567.65
635.57	579.25
636.018	588.15
636.466	585.15
636.914	568.45
637.362	599.65
637.81	584.55
638.258	603.55
638.705	608.55
639.153	633.05
639.601	646.05
640.049	671.05
640.497	705.35
640.944	724.75
641.392	667.65
641.84	631.85
642.287	611.95
642.735	587.35
643.182	576.85
643.63	582.35
644.078	584.25
644.525	594.05
644.973	607.05
645.42	614.65
645.867	641.05
646.315	663.55
646.762	683.45
647.21	712.65
647.657	724.65
648.104	757.85
648.551	784.15
648.999	843.05
649.446	915.65
649.893	993.95
650.34	1135.65
650.787	1358.45
651.234	1667.55
651.682	2161.05
652.129	2887.15
652.576	4097.55
653.023	5977.05
653.47	8101.45
653.917	10069.85
654.363	11601.25
654.81	12835.65
655.257	12159.95
655.704	8086.95
656.151	4864.45
656.598	3216.95
657.044	2308.85
657.491	1800.85
657.938	1465.15
658.385	1214.75
658.831	1066.95
659.278	964.65
659.724	867.25
660.171	790.55
660.618	737.75
661.064	697.75
661.511	686.25
661.957	666.65
662.404	655.45
662.85	665.65
663.296	629.55
663.743	580.85
664.189	553.55
664.635	551.75
665.082	540.45
665.528	549.85
665.974	539.65
666.42	521.85
666.867	524.45
667.313	509.05
667.759	491.05
668.205	473.55
668.651	473.65
669.097	457.75
669.543	464.85
669.989	460.15
670.435	470.55
670.881	466.05
671.327	471.25
671.773	489.65
672.219	511.45
672.665	574.55
673.11	611.75
673.556	658.15
674.002	702.95
674.448	687.45
674.893	574.45
675.339	501.05
675.785	458.15
676.23	436.65
676.676	407.55
677.122	399.55
677.567	388.35
678.013	381.85
678.458	379.55
678.904	382.45
679.349	365.05
679.794	373.55
680.24	375.05
680.685	367.65
681.131	357.15
681.576	371.55
682.021	369.65
682.466	364.55
682.912	359.75
683.357	367.05
683.802	399.55
684.247	423.85
684.692	476.55
685.137	515.95
685.583	556.75
686.028	586.65
686.473	545.25
686.918	470.75
687.363	438.75
687.807	412.55
688.252	376.45
688.697	369.05
689.142	347.65
689.587	350.65
690.032	338.45
690.477	367.55
690.921	371.25
691.366	401.95
691.811	416.85
692.255	444.15
692.7	479.55
693.145	523.35
693.589	735.25
694.034	1171.45
694.478	1618.75
694.923	1817.35
695.367	2385.95
695.812	1255.15
696.256	527.25
696.701	383.15
697.145	356.75
697.59	343.55
698.034	329.25
698.478	336.55
698.922	335.95
699.367	337.05
699.811	346.25
700.255	364.95
700.699	399.05
701.143	436.55
701.588	493.95
702.032	535.35
702.476	525.85
702.92	505.65
703.364	523.85
703.808	673.45
704.252	1081.35
704.696	1519.35
705.14	1740.95
705.584	2234.35
706.027	1102.15
706.471	549.85
706.915	418.85
707.359	365.45
707.803	330.75
708.246	321.35
708.69	325.65
709.134	331.45
709.577	322.95
710.021	328.05
710.465	318.65
710.908	311.65
711.352	312.35
711.795	328.25
712.239	367.55
712.682	389.95
713.126	428.55
713.569	474.45
714.012	370.75
714.456	314.55
714.899	298.35
715.342	286.75
715.786	274.25
716.229	273.35
716.672	267.25
717.115	254.75
717.558	261.45
718.002	257.85
718.445	275.65
718.888	289.45
719.331	298.55
719.774	316.85
720.217	321.35
720.66	298.05
721.103	273.75
721.546	265.55
721.989	260.15
722.432	242.75
722.874	257.55
723.317	243.45
723.76	242.25
724.203	268.25
724.645	329.85
725.088	464.05
725.531	593.95
725.974	671.15
726.416	571.45
726.859	311.55
727.301	253.05
727.744	244.45
728.187	242.15
728.629	252.15
729.071	245.95
729.514	269.85
729.956	281.45
730.399	293.35
730.841	300.85
731.283	291.95
731.726	270.55
732.168	277.15
732.61	281.15
733.053	300.25
733.495	329.55
733.937	366.05
734.379	419.65
734.821	447.35
735.263	568.05
735.705	869.95
736.148	1658.65
736.59	2731.25
737.032	3246.85
737.474	2622.75
737.916	861.75
738.357	464.45
738.799	348.35
739.241	314.85
739.683	288.45
740.125	296.95
740.567	308.45
741.008	332.55
741.45	335.55
741.892	329.55
742.334	373.65
742.775	383.15
743.217	365.05
743.658	282.45
744.1	265.95
744.542	275.05
744.983	339.45
745.425	372.25
745.866	356.25
746.307	299.15
746.749	288.75
747.19	339.05
747.632	466.15
748.073	921.65
748.514	1953.65
748.956	3006.15
749.397	3771.15
749.838	3119.05
750.279	3114.25
750.72	1567.05
751.162	575.25
751.603	335.45
752.044	260.95
752.485	223.05
752.926	220.35
753.367	213.65
753.808	206.05
754.249	204.25
754.69	188.65
755.131	193.35
755.572	188.45
756.013	193.55
756.453	188.55
756.894	202.65
757.335	195.15
757.776	198.05
758.216	203.75
758.657	207.65
759.098	211.65
759.538	231.85
759.979	283.15
760.42	394.35
760.86	734.35
761.301	1912.85
761.741	4659.65
762.182	6745.05
762.622	4760.75
763.063	1392.95
763.503	561.65
763.943	341.35
764.384	276.85
764.824	265.05
765.264	259.55
765.705	224.45
766.145	191.95
766.585	177.85
767.025	166.85
767.465	168.75
767.906	191.35
768.346	208.25
768.786	222.95
769.226	223.15
769.666	319.05
770.106	644.75
770.546	1611.75
770.986	2768.15
771.426	2471.55
771.866	826.35
772.306	343.25
772.745	217.45
773.185	170.35
773.625	167.55
774.065	146.25
774.505	168.65
774.944	209.15
775.384	373.55
775.824	630.15
776.263	599.75
776.703	290.95
777.142	166.45
777.582	136.25
778.021	134.65
778.461	129.95
778.9	128.95
779.34	136.45
779.779	110.15
780.219	107.55
780.658	111.55
781.097	109.75
781.537	121.45
781.976	114.75
782.415	114.05
782.855	109.05
783.294	102.15
783.733	102.15
784.172	109.05
784.611	104.05
785.05	107.55
785.489	114.45
785.928	118.85
786.367	123.95
786.806	122.05
787.245	131.75
787.684	141.95
788.123	154.15
788.562	139.45
789.001	120.75
789.44	130.95
789.879	119.95
790.317	119.95
790.756	131.15
791.195	138.05
791.634	152.65
792.072	209.35
792.511	378.75
792.95	1040.45
793.388	2216.25
793.827	2005.85
794.265	702.45
794.704	286.15
795.142	187.45
795.581	158.55
796.019	144.15
796.458	135.05
796.896	123.95
797.334	137.05
797.773	157.45
798.211	229.55
798.649	451.05
799.087	1066.05
799.526	1671.65
799.964	2120.45
800.402	2104.25
800.84	793.75
801.278	318.65
801.716	196.05
802.154	158.65
802.592	150.55
803.03	148.55
803.468	141.65
803.906	150.55
804.344	155.05
804.782	145.35
805.22	150.25
805.658	133.65
806.096	154.75
806.533	159.25
806.971	184.25
807.409	231.15
807.847	328.85
808.284	708.25
808.722	1947.05
809.16	3447.55
809.597	3275.85
810.035	5688.45
810.472	6056.85
810.91	2206.15
811.347	836.25
811.785	426.55
812.222	270.05
812.66	202.95
813.097	176.85
813.535	149.45
813.972	137.05
814.409	121.05
814.846	115.95
815.284	112.75
815.721	106.25
816.158	102.75
816.595	110.05
817.032	162.05
817.47	189.45
817.907	145.75
818.344	99.75
818.781	100.65
819.218	102.75
819.655	130.15
820.092	202.85
820.529	224.65
820.966	180.75
821.403	129.55
821.839	103.25
822.276	101.75
822.713	130.55
823.15	148.85
823.587	121.15
824.023	159.05
824.46	315.15
824.897	944.55
825.333	1409.15
825.77	614.85
826.206	241.15
826.643	139.45
827.08	103.65
827.516	86.85
827.953	84.95
828.389	79.35
828.825	73.25
829.262	71.05
829.698	69.55
830.135	60.85
830.571	60.15
831.007	65.35
831.443	61.55
831.88	62.25
832.316	65.75
832.752	67.65
833.188	63.45
833.624	68.45
834.06	70.05
834.497	67.25
834.933	69.85
835.369	74.45
835.805	77.95
836.241	80.15
836.677	79.05
837.112	96.25
837.548	110.65
837.984	139.85
838.42	211.55
838.856	514.65
839.292	1600.35
839.727	2419.55
840.163	1121.45
840.599	977.15
841.034	2112.55
841.47	2230.85
841.906	808.65
842.341	342.25
842.777	211.85
843.212	211.55
843.648	189.65
844.083	110.35
844.519	82.35
844.954	71.85
845.39	59.25
845.825	55.25
846.261	56.95
846.696	50.55
847.131	58.85
847.566	59.25
848.002	50.85
848.437	60.35
848.872	64.65
849.307	64.25
849.742	87.05
850.177	189.65
850.613	575.35
851.048	925.55
851.483	405.35
851.918	163.45
852.353	86.55
852.788	61.15
853.223	53.65
853.657	51.85
854.092	50.05
854.527	48.25
854.962	42.45
855.397	40.85
855.832	49.75
856.266	39.95
856.701	38.95
857.136	41.35
857.57	43.45
858.005	50.15
858.44	64.45
858.874	44.15
859.309	49.45
859.743	42.15
860.178	47.95
860.612	43.55
861.047	53.55
861.481	71.45
861.915	81.95
862.35	58.85
862.784	30.85
863.218	37.05
863.653	29.75
864.087	49.55
864.521	52.85
864.955	71.45
865.39	156.75
865.824	180.35
866.258	117.85
866.692	180.35
867.126	195.75
867.56	118.85
867.994	59.35
868.428	40.55
868.862	52.35
869.296	56.15
869.73	61.35
870.164	53.85
870.598	51.45
871.031	36.05
871.465	32.35
871.899	28.15
872.333	22.55
872.766	26.95
873.2	27.85
873.634	32.05
874.067	27.85
874.501	29.55
874.935	30.45
875.368	36.35
875.802	31.55
876.235	24.15
876.669	28.25
877.102	26.45
877.535	27.35
877.969	21.95
878.402	23.85
878.836	14.85
879.269	20.85
879.702	29.15
880.135	19.75
880.569	19.85
881.002	26.95
881.435	20.25
881.868	13.95
882.301	19.65
882.734	15.45
883.167	26.75
883.601	20.45
884.034	25.35
884.467	16.05
884.899	15.65
885.332	20.25
885.765	14.35
886.198	14.55
886.631	16.35
887.064	16.05
887.497	24.15
887.929	28.05
888.362	14.35
888.795	15.85
889.228	19.85
889.66	18.25
890.093	11.65
890.526	13.95
890.958	16.75
891.391	12.85
891.823	23.85
892.256	12.55
892.688	17.25
893.121	19.75
893.553	20.35
893.985	19.55
894.418	22.65
894.85	16.15
895.282	15.85
895.715	22.25
896.147	14.55
896.579	16.55
897.011	16.95
897.444	16.45
897.876	13.65
898.308	12.15
898.74	11.55
899.172	13.25
899.604	15.85
900.036	19.05
900.468	7.55
900.9	17.55
901.332	20.95
901.764	13.75
902.196	13.35
902.628	20.75
903.06	18.75
903.491	31.65
903.923	26.25
904.355	17.75
904.787	22.75
905.218	17.15
905.65	21.15
906.082	13.15
906.513	22.75
906.945	14.45
907.376	13.85
907.808	16.35
908.239	16.65
908.671	20.65
909.102	17.25
909.534	25.85
909.965	48.65
910.397	89.65
910.828	320.45
911.259	488.05
911.691	224.65
912.122	112.15
912.553	59.05
912.984	34.15
913.415	22.45
913.847	23.05
914.278	15.75
914.709	13.75
915.14	16.55
915.571	18.25
916.002	17.05
916.433	15.25
916.864	15.75
917.295	19.55
917.726	16.55
918.157	17.85
918.587	28.65
919.018	20.15
919.449	21.55
919.88	22.45
920.311	36.65
920.741	47.05
921.172	169.65
921.603	152.85
922.033	70.15
922.464	40.95
922.895	24.35
923.325	17.75
923.756	15.35
924.186	10.45
924.617	14.15
925.047	19.65
925.478	24.45
925.908	25.85
926.338	7.35
926.769	14.15
927.199	11.15
927.629	4.85
928.06	14.95
928.49	14.05
928.92	13.55
929.35	13.05
929.78	11.95
930.21	9.25
930.641	7.75
931.071	7.85
931.501	5.65
931.931	13.25
932.361	6.75
932.791	6.05
933.221	3.55
933.651	10.05
934.08	19.25
934.51	26.45
934.94	6.35
935.37	7.65
935.8	9.75
936.229	2.85
936.659	9.75
937.089	3.95
937.519	15.25
937.948	19.05
938.378	20.65
938.807	4.75
939.237	8.35
939.666	3.25
940.096	-1.45
940.525	-2.55
940.955	-3.15
941.384	4.95
941.814	-3.85
942.243	3.25
942.672	-3.65
943.102	-5.15
943.531	-6.65
943.96	5.35
944.39	-0.55
944.819	2.35
945.248	-2.75
945.677	1.85
946.106	6.85
946.535	4.55
946.964	4.55
947.393	8.25
947.822	-2.15
948.251	2.25
948.68	5.15
949.109	7.85
949.538	5.65
949.967	-0.45
950.396	-3.35
950.825	-2.85
951.254	-0.45
951.682	-9.35
952.111	1.05
952.54	6.05
952.969	-4.45
953.397	-8.15
953.826	3.15
954.254	-0.55
954.683	2.35
955.112	-8.55
955.54	-2.05
955.969	0.75
956.397	-6.15
956.826	0.25
957.254	2.55
957.682	-0.45
958.111	0.55
958.539	7.65
958.967	-0.85
959.396	-6.25
959.824	-2.25
960.252	1.75
960.68	-0.55
961.109	-4.25
961.537	-4.85
961.965	-1.65
962.393	3.35
962.821	-5.15
963.249	-0.05
963.677	4.15
964.105	4.95
964.533	42.45
964.961	40.65
965.389	20.85
965.817	7.05
966.245	6.25
966.672	-1.15
967.1	-4.85
967.528	-3.45
967.956	-2.05
968.383	2.25
968.811	-5.85
969.239	-6.25
969.666	-4.55
970.094	-0.15
970.522	0.25
970.949	-7.25
971.377	-6.15
971.804	-4.85
972.232	-2.85
972.659	-0.25
973.087	-4.15
973.514	-4.85
973.941	-3.85
974.369	2.35
974.796	4.15
975.223	-1.45
975.651	-3.05
976.078	5.35
976.505	0.35
976.932	3.35
977.359	19.05
977.786	15.45
978.214	-5.05
978.641	-3.15
979.068	-1.55
979.495	-1.15
979.922	-4.05
980.349	-3.15
980.776	2.85
981.202	-3.95
981.629	3.65
982.056	4.35
982.483	2.05
982.91	-2.25
983.337	-4.35
983.763	2.55
984.19	-10.15
984.617	-2.55
985.043	-6.25
985.47	-5.95
985.897	-9.65
986.323	-6.75
986.75	6.35
987.176	4.95
987.603	-2.85
988.029	-2.95
988.456	-5.35
988.882	2.05
989.308	0.55
989.735	-4.75
990.161	5.65
990.587	-6.05
991.014	-0.45
991.44	3.25
991.866	-6.15
992.292	-7.15
992.719	-2.15
993.145	3.75
993.571	-11.25
993.997	-4.95
994.423	-0.25
994.849	2.05
995.275	-4.85
995.701	-1.55
996.127	-6.25
996.553	-6.05
996.979	-6.45
997.405	0.95
997.83	-4.25
998.256	-9.75
998.682	-6.95
999.108	-11.35
999.534	-5.55
999.959	-6.45
1000.385	-6.55
1000.811	1.45
1001.236	-6.75
1001.662	-6.15
1002.087	-8.85
1002.513	2.45
1002.938	-2.25
1003.364	-3.95
1003.789	-0.25
1004.215	-0.05
1004.64	-7.35
1005.066	-2.05
1005.491	2.25
1005.916	-4.95
1006.342	-4.35
1006.767	-10.85
1007.192	5.05
1007.617	-5.85
1008.042	-5.05
1008.468	-3.55
1008.893	-4.35
1009.318	-7.15
1009.743	1.35
1010.168	3.45
1010.593	1.35
1011.018	-10.85
1011.443	-5.65
1011.868	-1.75
1012.293	-3.15
1012.718	-6.95
1013.143	-0.55
1013.567	-6.65
1013.992	-4.35
1014.417	-13.05
1014.842	7.65
1015.267	-1.15
1015.691	-0.85
1016.116	5.75
1016.541	-7.35
1016.965	-0.45
1017.39	2.05
1017.814	2.05
1018.239	-10.05
1018.663	-5.05
1019.088	-8.55
1019.512	-7.05
1019.937	-5.45
1020.361	-10.85
1020.785	-13.15
1021.21	-8.55
1021.634	-3.65
1022.058	-0.45
1022.483	6.25
1022.907	0.45
1023.331	-5.95
1023.755	-2.05
1024.179	4.45
1024.604	-7.05
1025.028	-11.25
1025.452	-10.65
1025.876	-8.85
1026.3	-2.65
1026.724	-14.45
1027.148	-6.35
1027.572	-3.85
1027.996	-5.65
1028.42	-8.05
1028.843	-5.05
1029.267	-8.55
1029.691	-7.95
1030.115	-9.25
1030.539	-8.15
1030.962	-5.55
1031.386	-8.25
1031.81	-2.95
1032.233	-2.45
1032.657	-4.25
1033.08	3.65
1033.504	-6.15
1033.927	-6.45
1034.351	3.15
1034.774	-3.75
1035.198	-0.85
1035.621	-4.15
1036.045	-5.45
1036.468	-6.25
1036.891	-7.65
1037.315	-14.85
1037.738	-8.05
1038.161	0.75
1038.584	-2.65
1039.008	-7.45
1039.431	-4.85
1039.854	3.15
1040.277	-9.55
1040.7	-13.05
1041.123	-4.95
1041.546	-9.45
1041.969	-8.95
1042.392	-4.15
1042.815	0.35
1043.238	-2.15
1043.661	1.25
1044.084	-11.25
1044.507	-6.35
1044.93	-10.95
1045.352	-7.75
1045.775	-6.75
1046.198	-3.15
1046.621	-6.15
1047.043	-3.15
1047.466	5.35
1047.889	-1.95
1048.311	-8.65
1048.734	-3.25
1049.156	-1.75
1049.579	1.75
1050.001	-3.95
1050.424	-9.85
1050.846	-2.05
1051.269	-4.05
1051.691	-13.65
1052.113	-5.85
1052.536	-1.35
1052.958	2.05
1053.38	-7.95
1053.802	-7.35
1054.225	6.95
1054.647	-9.95
1055.069	-4.15
1055.491	-0.55
1055.913	-8.65
1056.335	-1.55
1056.757	-5.95
1057.179	-7.95
1057.601	-3.55
1058.023	-8.35
1058.445	-6.05
1058.867	-4.85
1059.289	-3.65
1059.711	-2.85
1060.133	-5.65
1060.555	-2.35
1060.976	-5.75
1061.398	-0.55
1061.82	-6.95
1062.241	-1.85
1062.663	-10.55
1063.085	-10.45
1063.506	1.35
1063.928	-7.65
1064.35	-6.15
1064.771	-13.95
1065.193	-1.35
1065.614	-7.95
1066.035	-3.55
1066.457	-3.25
1066.878	1.85
1067.3	-6.85
1067.721	-3.55
1068.142	-6.45
1068.564	-12.15
1068.985	-5.35
1069.406	-6.55
1069.827	-8.05
1070.248	-3.15
1070.67	-8.25
1071.091	-5.35
1071.512	-1.95
1071.933	-1.15
1072.354	-13.55
1072.775	-6.45
1073.196	-10.85
1073.617	0.85
1074.038	-5.65
1074.459	-5.25
1074.88	-6.45
1075.3	-5.05
1075.721	-1.55
1076.142	-2.65
1076.563	-2.45
1076.983	-15.15
1077.404	-4.85
1077.825	-10.05
1078.246	-5.65
1078.666	-16.95
1079.087	-5.15
1079.507	-5.75
1079.928	1.35
1080.348	-0.55
1080.769	-11.05
1081.189	1.05
1081.61	-3.15
1082.03	-10.85
1082.451	-10.85
1082.871	-3.05
1083.291	-13.75
1083.711	-12.35
1084.132	-8.55
1084.552	-6.35
1084.972	1.75
1085.392	-11.75
1085.813	-8.25
1086.233	-5.35
1086.653	-7.75
1087.073	0.05
1087.493	-10.25
1087.913	-5.05
1088.333	-14.75
1088.753	-7.45
1089.173	-2.25
1089.593	-2.05
1090.013	-6.35
1090.433	-4.85
1090.852	-1.55
1091.272	-8.25
1091.692	-3.25
1092.112	-8.55
1092.531	-10.15
1092.951	-13.95
1093.371	-1.65
1093.79	0.85
1094.21	-7.45
1094.63	-2.55
1095.049	-12.85
1095.469	-2.35
1095.888	-6.15
1096.308	1.95
1096.727	-2.85
1097.146	-6.55
1097.566	0.45
1097.985	-14.65
1098.405	-4.55
1098.824	-1.05
1099.243	-4.35
1099.662	-14.85
1100.082	-6.55
1100.501	-5.55
1100.92	-9.75
1101.339	-0.45
1101.758	-8.85
