Data from 20171114-ORNL-Ar_H_NY_Subt18_08-07-53-546.txt Node
Date: Tue Nov 14 08:07:53 EST 2017
User: Ender
Spectrometer: HR+D1039
Trigger mode: 0
Integration Time (sec): 2.730000E-2
Scans to average: 10
Electric dark correction enabled: true
Nonlinearity correction enabled: false
Boxcar width: 0
XAxis mode: Wavelengths
Number of Pixels in Spectrum: 2048
>>>>>Begin Spectral Data<<<<<
187.836	-1.14
188.309	-1.14
188.782	-1.14
189.255	3.16
189.728	-1.64
190.201	1.56
190.674	2.96
191.147	2.06
191.619	-8.44
192.092	1.36
192.565	2.76
193.038	-1.94
193.511	4.76
193.984	-0.44
194.456	-7.14
194.929	2.66
195.402	-0.44
195.874	-0.04
196.347	-1.34
196.82	-11.24
197.292	4.86
197.765	-1.84
198.237	-8.84
198.71	-0.34
199.182	-2.04
199.655	1.16
200.127	3.46
200.6	-3.64
201.072	-3.44
201.544	-7.54
202.017	-3.54
202.489	6.46
202.961	-2.04
203.433	-6.64
203.906	-5.84
204.378	-1.34
204.85	-6.84
205.322	-7.14
205.794	-4.74
206.266	-3.24
206.739	-6.64
207.211	-3.44
207.683	-5.24
208.155	-6.34
208.627	-11.14
209.099	-2.54
209.57	-15.44
210.042	-2.14
210.514	-5.44
210.986	-6.04
211.458	-5.64
211.93	-1.64
212.402	3.66
212.873	-5.24
213.345	-10.04
213.817	-12.74
214.288	-7.84
214.76	-11.24
215.232	-0.44
215.703	-6.94
216.175	-4.34
216.646	-7.54
217.118	-8.44
217.589	-5.14
218.061	-3.14
218.532	-8.64
219.004	-2.44
219.475	-1.04
219.946	-0.84
220.418	-8.04
220.889	5.66
221.36	-2.64
221.832	-1.74
222.303	-4.34
222.774	-2.54
223.245	-11.34
223.717	-7.14
224.188	-3.44
224.659	-8.24
225.13	2.26
225.601	-2.04
226.072	1.96
226.543	-0.84
227.014	-1.94
227.485	-2.44
227.956	-8.84
228.427	-5.44
228.898	-1.84
229.369	2.56
229.839	2.16
230.31	-10.34
230.781	3.16
231.252	-0.34
231.722	-7.84
232.193	-2.74
232.664	-1.24
233.135	-0.04
233.605	-1.04
234.076	-5.44
234.546	-2.64
235.017	-3.04
235.487	1.06
235.958	-2.94
236.428	-2.64
236.899	4.76
237.369	-0.64
237.84	2.56
238.31	6.66
238.78	-1.34
239.251	-6.74
239.721	-1.74
240.191	-6.54
240.662	5.16
241.132	-1.44
241.602	-4.54
242.072	-2.64
242.542	8.16
243.013	-0.64
243.483	3.26
243.953	-2.34
244.423	2.66
244.893	-5.04
245.363	2.86
245.833	1.56
246.303	-1.24
246.773	3.96
247.243	0.16
247.712	-0.04
248.182	12.56
248.652	7.56
249.122	-3.74
249.592	4.26
250.061	17.56
250.531	31.16
251.001	13.76
251.471	19.06
251.94	16.06
252.41	5.26
252.879	0.96
253.349	11.06
253.818	6.26
254.288	7.86
254.757	7.66
255.227	1.36
255.696	0.66
256.166	-0.14
256.635	7.66
257.105	6.96
257.574	2.06
258.043	5.96
258.513	11.46
258.982	14.16
259.451	5.36
259.92	13.56
260.389	10.76
260.859	13.46
261.328	11.66
261.797	16.66
262.266	2.26
262.735	9.46
263.204	9.16
263.673	8.06
264.142	0.56
264.611	-0.64
265.08	-0.24
265.549	0.66
266.018	-0.94
266.487	-1.04
266.955	-5.44
267.424	-2.94
267.893	3.36
268.362	-0.74
268.83	0.56
269.299	6.06
269.768	5.36
270.236	3.26
270.705	-0.64
271.174	5.46
271.642	6.06
272.111	10.86
272.579	16.16
273.048	22.36
273.516	18.66
273.985	30.86
274.453	21.26
274.922	19.06
275.39	9.56
275.858	-3.94
276.327	8.16
276.795	16.56
277.263	4.96
277.731	27.26
278.2	47.26
278.668	48.36
279.136	40.96
279.604	13.06
280.072	9.16
280.54	9.96
281.008	8.76
281.477	12.46
281.945	11.86
282.413	14.86
282.881	11.66
283.348	3.86
283.816	20.86
284.284	13.26
284.752	14.56
285.22	17.36
285.688	13.36
286.156	15.36
286.623	47.76
287.091	46.66
287.559	25.96
288.026	16.56
288.494	13.86
288.962	4.16
289.429	9.56
289.897	19.86
290.364	7.96
290.832	15.36
291.3	9.96
291.767	10.16
292.234	17.36
292.702	15.06
293.169	23.56
293.637	24.76
294.104	14.16
294.571	8.16
295.039	11.56
295.506	14.26
295.973	13.86
296.44	11.46
296.908	21.56
297.375	14.96
297.842	17.16
298.309	17.36
298.776	8.26
299.243	15.16
299.71	12.06
300.177	14.66
300.644	19.66
301.111	16.16
301.578	18.36
302.045	12.96
302.512	20.66
302.979	23.26
303.446	17.96
303.913	17.66
304.379	15.96
304.846	23.46
305.313	24.76
305.78	18.96
306.246	26.76
306.713	23.66
307.18	25.26
307.646	28.96
308.113	21.56
308.579	23.96
309.046	22.66
309.512	23.66
309.979	11.96
310.445	26.26
310.912	28.56
311.378	30.06
311.845	26.96
312.311	27.46
312.777	28.46
313.244	30.36
313.71	33.16
314.176	28.96
314.642	25.06
315.109	30.06
315.575	30.76
316.041	37.96
316.507	32.16
316.973	31.06
317.439	30.36
317.905	29.46
318.371	34.36
318.837	30.56
319.303	30.96
319.769	27.66
320.235	32.36
320.701	34.36
321.167	35.76
321.633	31.96
322.099	39.76
322.564	42.96
323.03	37.46
323.496	37.06
323.962	38.96
324.427	27.96
324.893	40.16
325.359	36.76
325.824	30.46
326.29	36.86
326.755	41.16
327.221	31.06
327.686	37.36
328.152	46.06
328.617	40.46
329.083	40.26
329.548	49.56
330.014	42.36
330.479	39.96
330.944	39.86
331.41	35.36
331.875	39.36
332.34	41.06
332.805	39.66
333.271	39.46
333.736	41.16
334.201	45.66
334.666	44.26
335.131	47.66
335.596	51.46
336.061	51.76
336.526	38.36
336.991	47.06
337.456	49.76
337.921	40.96
338.386	41.06
338.851	45.06
339.316	45.46
339.781	41.06
340.246	54.36
340.711	41.36
341.175	44.16
341.64	37.66
342.105	47.96
342.569	58.46
343.034	52.36
343.499	54.46
343.963	49.36
344.428	60.16
344.893	56.76
345.357	54.16
345.822	53.46
346.286	62.16
346.751	67.66
347.215	61.36
347.679	73.16
348.144	94.96
348.608	78.16
349.073	61.86
349.537	71.26
350.001	72.96
350.465	77.86
350.93	73.06
351.394	74.26
351.858	69.26
352.322	81.76
352.786	76.56
353.25	91.96
353.715	102.56
354.179	99.76
354.643	112.16
355.107	113.46
355.571	102.46
356.035	96.96
356.498	114.16
356.962	118.06
357.426	127.96
357.89	105.26
358.354	79.56
358.818	78.56
359.281	82.16
359.745	74.26
360.209	81.76
360.673	67.36
361.136	73.46
361.6	80.56
362.064	76.56
362.527	76.76
362.991	85.26
363.454	77.26
363.918	77.66
364.381	75.86
364.845	73.56
365.308	83.96
365.772	76.06
366.235	83.16
366.698	77.96
367.162	81.36
367.625	80.06
368.088	84.06
368.552	84.66
369.015	81.56
369.478	95.76
369.941	86.46
370.404	89.76
370.867	96.16
371.331	99.86
371.794	112.36
372.257	107.66
372.72	110.56
373.183	103.46
373.646	103.56
374.109	104.16
374.572	100.86
375.035	104.66
375.497	106.46
375.96	105.06
376.423	102.26
376.886	110.86
377.349	112.86
377.811	98.86
378.274	101.66
378.737	100.26
379.199	109.26
379.662	112.46
380.125	111.66
380.587	112.66
381.05	124.16
381.512	123.06
381.975	125.56
382.437	128.26
382.9	123.26
383.362	124.76
383.825	139.86
384.287	140.66
384.75	141.46
385.212	138.16
385.674	134.16
386.136	133.26
386.599	114.26
387.061	124.66
387.523	132.16
387.985	134.66
388.447	142.26
388.91	145.36
389.372	156.16
389.834	151.86
390.296	148.46
390.758	152.06
391.22	167.16
391.682	209.26
392.144	303.36
392.606	222.76
393.068	171.36
393.529	163.86
393.991	148.66
394.453	140.96
394.915	145.06
395.377	186.56
395.838	209.76
396.3	157.46
396.762	139.46
397.224	124.16
397.685	129.16
398.147	125.66
398.608	122.26
399.07	119.96
399.531	129.56
399.993	141.26
400.454	154.56
400.916	142.46
401.377	140.76
401.839	145.46
402.3	147.06
402.762	160.76
403.223	179.56
403.684	164.86
404.145	158.96
404.607	160.66
405.068	157.76
405.529	164.36
405.99	180.66
406.451	174.36
406.913	169.76
407.374	158.46
407.835	152.16
408.296	160.66
408.757	162.26
409.218	185.46
409.679	172.36
410.14	171.66
410.601	179.96
411.062	180.16
411.522	183.56
411.983	187.46
412.444	178.26
412.905	180.46
413.366	178.26
413.826	187.56
414.287	211.26
414.748	260.16
415.208	236.46
415.669	201.56
416.13	195.86
416.59	199.96
417.051	208.26
417.511	209.86
417.972	226.36
418.432	237.36
418.893	277.76
419.353	251.26
419.814	188.76
420.274	179.96
420.734	182.56
421.195	196.26
421.655	193.36
422.115	182.56
422.576	190.66
423.036	201.86
423.496	202.66
423.956	209.46
424.416	226.56
424.876	257.66
425.336	250.16
425.797	250.66
426.257	248.86
426.717	235.46
427.177	232.46
427.637	221.56
428.097	228.76
428.556	237.96
429.016	266.86
429.476	261.16
429.936	269.86
430.396	274.06
430.856	290.46
431.315	315.36
431.775	338.96
432.235	381.16
432.694	353.16
433.154	355.86
433.614	386.56
434.073	332.66
434.533	282.06
434.993	265.36
435.452	275.56
435.912	289.86
436.371	282.56
436.83	277.26
437.29	266.26
437.749	245.76
438.209	247.86
438.668	269.46
439.127	281.46
439.587	257.76
440.046	238.96
440.505	254.26
440.964	269.56
441.424	308.56
441.883	312.36
442.342	254.06
442.801	220.06
443.26	221.16
443.719	223.96
444.178	221.96
444.637	211.26
445.096	212.66
445.555	221.86
446.014	221.06
446.473	218.76
446.932	227.16
447.391	225.76
447.849	225.26
448.308	210.36
448.767	212.66
449.226	232.36
449.685	231.36
450.143	245.16
450.602	230.36
451.061	223.06
451.519	227.76
451.978	223.86
452.436	225.76
452.895	236.46
453.353	241.06
453.812	237.26
454.27	234.76
454.729	225.26
455.187	235.06
455.646	235.96
456.104	239.56
456.562	253.76
457.021	270.36
457.479	253.36
457.937	265.26
458.395	264.76
458.854	246.76
459.312	251.16
459.77	262.86
460.228	254.16
460.686	234.96
461.144	236.36
461.602	238.56
462.06	235.36
462.518	247.96
462.976	249.66
463.434	248.46
463.892	259.66
464.35	269.96
464.808	289.06
465.266	257.16
465.724	264.96
466.181	270.16
466.639	264.16
467.097	284.06
467.555	289.66
468.012	293.06
468.47	305.16
468.928	314.06
469.385	329.46
469.843	337.96
470.3	336.36
470.758	349.06
471.215	375.16
471.673	398.16
472.13	401.76
472.588	412.26
473.045	370.96
473.503	376.86
473.96	383.76
474.417	400.36
474.875	413.76
475.332	468.96
475.789	454.56
476.246	464.06
476.704	485.06
477.161	505.86
477.618	511.06
478.075	545.26
478.532	606.16
478.989	680.06
479.446	790.46
479.903	756.56
480.36	790.86
480.817	849.36
481.274	949.36
481.731	1040.56
482.188	1139.46
482.645	1274.26
483.102	1385.26
483.558	1519.96
484.015	1572.66
484.472	1545.96
484.929	1500.06
485.385	1449.16
485.842	1410.46
486.299	1351.56
486.755	1280.86
487.212	1072.46
487.668	911.26
488.125	829.46
488.582	762.36
489.038	728.06
489.494	693.36
489.951	664.86
490.407	653.86
490.864	630.96
491.32	628.36
491.776	625.86
492.233	628.36
492.689	603.36
493.145	587.16
493.602	580.26
494.058	597.56
494.514	592.36
494.97	623.46
495.426	639.16
495.882	601.46
496.338	589.86
496.794	602.16
497.251	598.56
497.707	614.86
498.163	614.96
498.618	616.56
499.074	622.16
499.53	663.36
499.986	654.46
500.442	644.76
500.898	620.36
501.354	613.06
501.809	622.46
502.265	630.66
502.721	641.76
503.177	655.36
503.632	649.36
504.088	663.66
504.543	699.06
504.999	692.26
505.455	641.06
505.91	609.96
506.366	605.46
506.821	610.56
507.277	607.56
507.732	607.26
508.187	603.76
508.643	608.16
509.098	617.56
509.553	640.26
510.009	650.96
510.464	642.96
510.919	669.66
511.375	662.46
511.83	684.56
512.285	700.96
512.74	735.46
513.195	766.46
513.65	745.26
514.105	754.66
514.56	754.66
515.015	770.26
515.47	780.16
515.925	778.96
516.38	767.76
516.835	769.96
517.29	758.26
517.745	755.26
518.2	737.56
518.655	726.16
519.109	724.76
519.564	714.86
520.019	707.46
520.474	700.46
520.928	698.66
521.383	704.96
521.838	697.06
522.292	692.96
522.747	691.16
523.201	676.56
523.656	667.86
524.11	679.26
524.565	680.46
525.019	673.26
525.474	683.56
525.928	675.96
526.382	679.66
526.837	681.66
527.291	681.96
527.745	677.26
528.2	678.36
528.654	673.26
529.108	664.66
529.562	672.36
530.016	670.36
530.47	664.36
530.925	671.06
531.379	679.56
531.833	683.86
532.287	684.86
532.741	678.76
533.195	683.76
533.649	685.06
534.103	700.86
534.556	681.66
535.01	687.46
535.464	679.46
535.918	697.16
536.372	694.36
536.826	694.66
537.279	683.16
537.733	691.66
538.187	696.26
538.64	697.36
539.094	701.56
539.548	704.26
540.001	696.46
540.455	690.96
540.908	718.26
541.362	715.96
541.815	725.56
542.269	742.86
542.722	739.46
543.175	753.26
543.629	747.76
544.082	764.26
544.536	751.66
544.989	751.06
545.442	775.76
545.895	757.86
546.349	771.06
546.802	770.76
547.255	773.16
547.708	784.56
548.161	788.16
548.614	797.76
549.067	792.16
549.52	788.86
549.973	793.26
550.426	786.46
550.879	773.76
551.332	780.16
551.785	791.46
552.238	783.66
552.691	795.46
553.144	805.46
553.596	824.66
554.049	835.96
554.502	871.06
554.955	880.86
555.407	882.26
555.86	885.36
556.313	867.86
556.765	850.56
557.218	848.96
557.67	855.66
558.123	842.16
558.576	848.06
559.028	847.66
559.48	855.76
559.933	848.86
560.385	815.96
560.838	782.56
561.29	759.66
561.742	768.06
562.195	741.56
562.647	745.16
563.099	750.36
563.551	758.46
564.004	760.86
564.456	757.06
564.908	743.86
565.36	725.46
565.812	717.76
566.264	704.36
566.716	711.66
567.168	699.56
567.62	704.46
568.072	690.46
568.524	672.86
568.976	671.56
569.428	661.56
569.88	662.46
570.332	655.76
570.784	673.56
571.235	655.76
571.687	684.46
572.139	675.66
572.59	686.26
573.042	690.66
573.494	695.56
573.945	690.76
574.397	668.46
574.849	671.16
575.3	670.66
575.752	657.96
576.203	659.46
576.655	665.96
577.106	648.76
577.557	648.16
578.009	645.26
578.46	646.06
578.912	643.86
579.363	655.26
579.814	646.16
580.265	645.76
580.717	657.36
581.168	652.06
581.619	658.36
582.07	663.86
582.521	661.86
582.972	649.46
583.423	663.16
583.875	666.26
584.326	685.26
584.777	742.16
585.227	814.56
585.678	914.86
586.129	1001.66
586.58	1078.36
587.031	1149.96
587.482	1309.76
587.933	1503.36
588.384	1296.06
588.834	961.66
589.285	786.56
589.736	763.76
590.186	766.06
590.637	747.76
591.088	726.16
591.538	722.76
591.989	710.56
592.439	706.56
592.89	713.16
593.34	688.06
593.791	699.26
594.241	686.16
594.692	683.16
595.142	690.46
595.593	689.56
596.043	694.06
596.493	704.06
596.943	700.26
597.394	705.66
597.844	699.16
598.294	716.46
598.744	737.66
599.195	751.96
599.645	802.66
600.095	829.86
600.545	890.76
600.995	947.56
601.445	999.76
601.895	1057.16
602.345	1106.76
602.795	1077.56
603.245	1036.46
603.695	990.26
604.145	933.76
604.594	886.86
605.044	837.26
605.494	778.86
605.944	731.26
606.393	730.26
606.843	708.66
607.293	722.16
607.743	720.66
608.192	730.66
608.642	740.36
609.091	753.96
609.541	763.06
609.99	751.16
610.44	754.36
610.889	703.56
611.339	682.56
611.788	679.56
612.238	691.16
612.687	697.56
613.136	702.66
613.586	724.76
614.035	739.66
614.484	733.06
614.933	745.06
615.383	743.86
615.832	730.26
616.281	716.76
616.73	679.76
617.179	645.06
617.628	638.36
618.077	630.16
618.526	609.06
618.975	612.86
619.424	611.96
619.873	600.56
620.322	602.16
620.771	586.46
621.22	590.26
621.669	575.66
622.118	577.26
622.567	570.26
623.015	563.06
623.464	546.56
623.913	546.86
624.361	548.76
624.81	543.36
625.259	551.86
625.707	545.76
626.156	536.86
626.604	559.06
627.053	554.66
627.501	557.46
627.95	547.36
628.398	559.36
628.847	549.66
629.295	553.76
629.744	549.16
630.192	554.86
630.64	546.86
631.089	555.26
631.537	564.46
631.985	579.86
632.433	595.36
632.881	602.56
633.33	661.06
633.778	640.46
634.226	567.96
634.674	563.56
635.122	567.36
635.57	588.26
636.018	619.36
636.466	568.46
636.914	550.36
637.362	560.96
637.81	559.56
638.258	573.56
638.705	565.36
639.153	599.46
639.601	598.96
640.049	620.26
640.497	662.46
640.944	686.06
641.392	626.26
641.84	606.06
642.287	577.26
642.735	562.46
643.182	569.16
643.63	561.36
644.078	563.56
644.525	576.16
644.973	585.46
645.42	593.46
645.867	611.76
646.315	634.76
646.762	657.26
647.21	685.66
647.657	700.96
648.104	737.56
648.551	755.26
648.999	831.46
649.446	896.96
649.893	993.26
650.34	1156.56
650.787	1401.66
651.234	1711.06
651.682	2247.36
652.129	3117.86
652.576	4510.06
653.023	6618.86
653.47	9090.36
653.917	11282.96
654.363	12920.86
654.81	14285.56
655.257	13575.86
655.704	8848.86
656.151	5198.66
656.598	3363.26
657.044	2380.46
657.491	1838.16
657.938	1473.16
658.385	1227.86
658.831	1068.26
659.278	940.96
659.724	847.46
660.171	775.56
660.618	713.06
661.064	672.56
661.511	655.76
661.957	647.26
662.404	633.46
662.85	639.66
663.296	615.66
663.743	554.76
664.189	537.76
664.635	524.46
665.082	524.46
665.528	513.96
665.974	508.06
666.42	498.76
666.867	490.96
667.313	484.46
667.759	477.46
668.205	472.56
668.651	476.86
669.097	472.66
669.543	489.86
669.989	461.06
670.435	437.26
670.881	434.36
671.327	439.76
671.773	457.96
672.219	475.86
672.665	531.26
673.11	577.06
673.556	613.86
674.002	648.26
674.448	638.76
674.893	535.66
675.339	456.46
675.785	424.56
676.23	411.76
676.676	380.66
677.122	372.46
677.567	372.26
678.013	352.96
678.458	355.56
678.904	353.96
679.349	339.26
679.794	344.16
680.24	343.26
680.685	339.86
681.131	340.76
681.576	339.36
682.021	345.76
682.466	339.26
682.912	333.16
683.357	348.16
683.802	376.66
684.247	396.96
684.692	448.86
685.137	489.16
685.583	527.16
686.028	554.36
686.473	511.36
686.918	435.86
687.363	409.86
687.807	382.16
688.252	358.66
688.697	336.76
689.142	323.46
689.587	319.56
690.032	320.26
690.477	334.46
690.921	343.96
691.366	378.36
691.811	387.46
692.255	428.36
692.7	453.36
693.145	500.36
693.589	698.16
694.034	1124.46
694.478	1507.86
694.923	1691.06
695.367	2181.46
695.812	1155.86
696.256	490.16
696.701	361.16
697.145	333.46
697.59	327.46
698.034	308.06
698.478	320.76
698.922	320.76
699.367	314.86
699.811	333.76
700.255	340.06
700.699	377.26
701.143	419.66
701.588	463.16
702.032	509.06
702.476	494.76
702.92	479.76
703.364	483.76
703.808	624.86
704.252	1034.36
704.696	1422.46
705.14	1634.56
705.584	2055.86
706.027	1030.46
706.471	506.86
706.915	390.16
707.359	346.46
707.803	314.26
708.246	294.86
708.69	304.76
709.134	304.56
709.577	305.16
710.021	314.56
710.465	294.86
710.908	293.56
711.352	297.16
711.795	299.16
712.239	341.56
712.682	385.86
713.126	404.56
713.569	451.26
714.012	357.36
714.456	321.46
714.899	286.56
715.342	264.56
715.786	253.56
716.229	245.06
716.672	240.66
717.115	240.96
717.558	244.16
718.002	241.06
718.445	255.96
718.888	275.56
719.331	284.16
719.774	297.16
720.217	298.36
720.66	277.96
721.103	264.26
721.546	244.06
721.989	242.96
722.432	222.46
722.874	238.16
723.317	229.46
723.76	229.96
724.203	255.86
724.645	314.96
725.088	446.86
725.531	556.36
725.974	622.76
726.416	536.36
726.859	303.66
727.301	245.76
727.744	228.96
728.187	220.56
728.629	234.26
729.071	235.26
729.514	258.96
729.956	265.36
730.399	281.06
730.841	281.56
731.283	263.86
731.726	255.06
732.168	250.26
732.61	262.06
733.053	278.56
733.495	306.46
733.937	339.56
734.379	389.36
734.821	429.96
735.263	536.16
735.705	835.86
736.148	1575.86
736.59	2541.46
737.032	2944.26
737.474	2390.46
737.916	791.16
738.357	417.36
738.799	317.96
739.241	289.46
739.683	276.46
740.125	280.86
740.567	293.96
741.008	309.46
741.45	310.36
741.892	310.16
742.334	350.06
742.775	350.66
743.217	337.86
743.658	261.86
744.1	248.76
744.542	257.16
744.983	308.16
745.425	340.06
745.866	326.26
746.307	272.86
746.749	275.56
747.19	319.16
747.632	451.36
748.073	884.06
748.514	1864.76
748.956	2782.16
749.397	3514.26
749.838	2905.36
750.279	2860.06
750.72	1448.76
751.162	530.66
751.603	309.56
752.044	240.66
752.485	212.96
752.926	199.06
753.367	202.66
753.808	187.16
754.249	186.76
754.69	187.26
755.131	182.36
755.572	181.96
756.013	177.86
756.453	182.26
756.894	185.16
757.335	185.46
757.776	190.26
758.216	191.16
758.657	190.86
759.098	207.26
759.538	225.46
759.979	263.56
760.42	372.86
760.86	703.56
761.301	1833.76
761.741	4368.66
762.182	6207.46
762.622	4361.46
763.063	1273.86
763.503	528.96
763.943	342.66
764.384	343.46
764.824	405.06
765.264	436.56
765.705	304.06
766.145	206.66
766.585	174.06
767.025	177.56
767.465	180.86
767.906	238.76
768.346	320.46
768.786	336.96
769.226	258.16
769.666	317.26
770.106	632.76
770.546	1565.26
770.986	2560.06
771.426	2274.36
771.866	771.36
772.306	320.76
772.745	204.76
773.185	167.76
773.625	163.66
774.065	157.16
774.505	201.96
774.944	315.76
775.384	704.16
775.824	1241.36
776.263	1187.36
776.703	521.16
777.142	220.36
777.582	160.66
778.021	139.76
778.461	135.76
778.9	133.86
779.34	128.16
779.779	117.56
780.219	102.46
780.658	106.36
781.097	109.06
781.537	110.16
781.976	104.86
782.415	100.56
782.855	101.76
783.294	104.16
783.733	102.06
784.172	110.46
784.611	106.46
785.05	114.46
785.489	111.96
785.928	112.96
786.367	117.46
786.806	114.86
787.245	119.46
787.684	139.66
788.123	143.66
788.562	132.36
789.001	120.96
789.44	116.86
789.879	114.66
790.317	115.36
790.756	132.26
791.195	122.96
791.634	144.86
792.072	201.16
792.511	370.86
792.95	1008.36
793.388	2095.16
793.827	1864.56
794.265	666.86
794.704	271.16
795.142	174.46
795.581	150.16
796.019	136.36
796.458	117.46
796.896	123.16
797.334	129.86
797.773	153.46
798.211	220.06
798.649	438.66
799.087	1014.66
799.526	1575.36
799.964	1972.26
800.402	1926.66
800.84	741.76
801.278	294.86
801.716	179.26
802.154	151.16
802.592	142.46
803.03	135.76
803.468	130.66
803.906	144.56
804.344	142.26
804.782	136.66
805.22	132.06
805.658	120.66
806.096	139.56
806.533	154.46
806.971	170.36
807.409	208.36
807.847	316.86
808.284	670.36
808.722	1859.56
809.16	3193.86
809.597	3106.16
810.035	5297.16
810.472	5520.26
810.91	1995.26
811.347	778.26
811.785	394.46
812.222	247.06
812.66	189.66
813.097	157.56
813.535	137.36
813.972	120.56
814.409	115.76
814.846	110.96
815.284	108.86
815.721	93.86
816.158	107.36
816.595	121.16
817.032	180.76
817.47	196.26
817.907	163.46
818.344	151.06
818.781	108.86
819.218	99.46
819.655	122.66
820.092	179.66
820.529	210.16
820.966	171.96
821.403	136.46
821.839	103.16
822.276	98.06
822.713	121.46
823.15	129.06
823.587	111.66
824.023	152.86
824.46	298.46
824.897	882.96
825.333	1304.56
825.77	554.06
826.206	219.16
826.643	132.86
827.08	99.46
827.516	82.96
827.953	73.66
828.389	76.26
828.825	64.76
829.262	64.06
829.698	62.06
830.135	63.86
830.571	57.46
831.007	59.06
831.443	62.46
831.88	60.86
832.316	65.26
832.752	64.66
833.188	60.76
833.624	68.26
834.06	67.76
834.497	70.06
834.933	69.66
835.369	71.26
835.805	69.66
836.241	75.86
836.677	76.66
837.112	85.86
837.548	100.06
837.984	129.16
838.42	195.26
838.856	503.26
839.292	1511.16
839.727	2216.86
840.163	1047.26
840.599	923.76
841.034	1997.06
841.47	2036.96
841.906	742.56
842.341	330.16
842.777	230.46
843.212	317.16
843.648	304.66
844.083	150.16
844.519	95.56
844.954	71.36
845.39	56.86
845.825	55.46
846.261	56.36
846.696	51.76
847.131	52.76
847.566	53.66
848.002	42.26
848.437	59.66
848.872	55.36
849.307	62.26
849.742	83.66
850.177	177.96
850.613	548.16
851.048	855.96
851.483	366.16
851.918	155.86
852.353	82.06
852.788	61.06
853.223	54.06
853.657	54.56
854.092	49.76
854.527	39.96
854.962	37.46
855.397	44.36
855.832	47.16
856.266	37.96
856.701	40.06
857.136	36.26
857.57	45.16
858.005	47.26
858.44	58.06
858.874	33.96
859.309	50.76
859.743	48.06
860.178	49.36
860.612	39.56
861.047	50.56
861.481	66.26
861.915	66.56
862.35	48.66
862.784	34.26
863.218	37.06
863.653	34.66
864.087	52.86
864.521	50.86
864.955	74.56
865.39	156.66
865.824	176.36
866.258	110.86
866.692	156.66
867.126	163.56
867.56	104.06
867.994	48.06
868.428	35.36
868.862	41.86
869.296	52.96
869.73	47.26
870.164	51.66
870.598	51.96
871.031	40.26
871.465	26.96
871.899	29.06
872.333	17.46
872.766	20.26
873.2	23.16
873.634	25.56
874.067	30.06
874.501	27.36
874.935	41.36
875.368	33.76
875.802	30.46
876.235	22.96
876.669	27.86
877.102	22.76
877.535	27.76
877.969	26.06
878.402	25.96
878.836	22.86
879.269	22.06
879.702	23.86
880.135	18.66
880.569	23.06
881.002	30.56
881.435	23.76
881.868	22.26
882.301	24.96
882.734	23.06
883.167	21.56
883.601	20.06
884.034	23.96
884.467	16.86
884.899	25.26
885.332	16.86
885.765	10.56
886.198	11.96
886.631	15.16
887.064	17.16
887.497	25.96
887.929	25.96
888.362	12.16
888.795	14.26
889.228	19.46
889.66	19.96
890.093	11.76
890.526	15.06
890.958	23.66
891.391	18.36
891.823	22.66
892.256	15.46
892.688	14.26
893.121	15.16
893.553	14.96
893.985	21.96
894.418	17.06
894.85	10.16
895.282	17.06
895.715	16.76
896.147	15.56
896.579	10.46
897.011	14.36
897.444	17.36
897.876	10.96
898.308	18.76
898.74	12.36
899.172	14.06
899.604	27.16
900.036	17.86
900.468	11.86
900.9	11.36
901.332	13.06
901.764	14.56
902.196	19.46
902.628	13.86
903.06	14.66
903.491	33.86
903.923	21.36
904.355	21.46
904.787	23.16
905.218	15.06
905.65	19.26
906.082	11.26
906.513	15.06
906.945	17.16
907.376	11.66
907.808	18.46
908.239	27.46
908.671	22.16
909.102	24.96
909.534	24.36
909.965	45.36
910.397	89.36
910.828	309.36
911.259	457.16
911.691	203.56
912.122	103.66
912.553	47.96
912.984	28.06
913.415	26.96
913.847	23.16
914.278	15.66
914.709	12.96
915.14	16.36
915.571	12.56
916.002	6.76
916.433	14.76
916.864	16.76
917.295	17.96
917.726	27.46
918.157	17.06
918.587	22.86
919.018	18.26
919.449	20.76
919.88	22.76
920.311	29.86
920.741	44.56
921.172	158.36
921.603	141.46
922.033	69.56
922.464	45.36
922.895	22.36
923.325	19.36
923.756	16.86
924.186	14.16
924.617	25.46
925.047	44.16
925.478	51.66
925.908	47.56
926.338	23.46
926.769	15.56
927.199	16.46
927.629	6.76
928.06	24.36
928.49	13.06
928.92	17.26
929.35	15.16
929.78	8.06
930.21	6.16
930.641	8.46
931.071	10.36
931.501	2.26
931.931	11.56
932.361	8.56
932.791	-0.24
933.221	-1.94
933.651	8.86
934.08	17.26
934.51	27.96
934.94	8.96
935.37	12.66
935.8	17.06
936.229	6.06
936.659	12.76
937.089	0.16
937.519	9.46
937.948	18.06
938.378	16.56
938.807	6.26
939.237	3.76
939.666	12.56
940.096	0.06
940.525	-2.24
940.955	-2.04
941.384	4.46
941.814	-0.44
942.243	-5.14
942.672	0.36
943.102	-3.34
943.531	-2.54
943.96	0.36
944.39	-3.14
944.819	1.76
945.248	-0.14
945.677	-3.74
946.106	5.36
946.535	7.06
946.964	-3.14
947.393	5.36
947.822	-0.04
948.251	-8.14
948.68	6.96
949.109	5.26
949.538	4.96
949.967	-3.84
950.396	-4.34
950.825	-0.74
951.254	-1.04
951.682	-5.14
952.111	6.96
952.54	7.96
952.969	0.06
953.397	-0.64
953.826	3.76
954.254	-7.34
954.683	2.36
955.112	-6.74
955.54	0.16
955.969	0.56
956.397	-3.34
956.826	-2.24
957.254	2.56
957.682	1.26
958.111	6.26
958.539	-1.64
958.967	-1.64
959.396	-1.74
959.824	-0.74
960.252	-3.94
960.68	-4.24
961.109	-6.04
961.537	-8.24
961.965	-4.84
962.393	0.66
962.821	-3.54
963.249	-7.64
963.677	1.86
964.105	5.76
964.533	41.26
964.961	34.56
965.389	16.86
965.817	10.06
966.245	-0.34
966.672	-4.14
967.1	-7.04
967.528	2.36
967.956	-6.94
968.383	0.26
968.811	0.56
969.239	-1.84
969.666	-5.14
970.094	1.56
970.522	3.66
970.949	-3.64
971.377	-7.04
971.804	-5.84
972.232	-1.74
972.659	-3.74
973.087	-6.94
973.514	-1.64
973.941	-1.54
974.369	6.26
974.796	3.66
975.223	-3.04
975.651	-2.94
976.078	-5.64
976.505	-4.84
976.932	-2.54
977.359	17.96
977.786	9.66
978.214	-0.04
978.641	-5.74
979.068	-2.94
979.495	-3.14
979.922	-4.34
980.349	-2.64
980.776	2.96
981.202	-3.44
981.629	1.76
982.056	5.16
982.483	1.56
982.91	7.66
983.337	-4.64
983.763	3.36
984.19	-6.04
984.617	-3.54
985.043	-3.94
985.47	-0.74
985.897	-1.44
986.323	-8.24
986.75	2.96
987.176	-3.54
987.603	-4.14
988.029	-0.74
988.456	-5.24
988.882	4.16
989.308	-9.34
989.735	-5.94
990.161	-4.34
990.587	-3.74
991.014	2.46
991.44	5.26
991.866	-3.94
992.292	-2.04
992.719	-9.44
993.145	0.86
993.571	-5.14
993.997	-8.04
994.423	-1.84
994.849	-11.24
995.275	-2.94
995.701	-1.14
996.127	-3.04
996.553	3.96
996.979	-11.34
997.405	-0.74
997.83	4.16
998.256	-8.44
998.682	-6.44
999.108	-6.64
999.534	0.76
999.959	-4.64
1000.385	-10.24
1000.811	1.46
1001.236	-12.74
1001.662	-10.74
1002.087	-3.14
1002.513	3.26
1002.938	5.36
1003.364	-2.64
1003.789	-0.34
1004.215	-2.34
1004.64	-3.84
1005.066	0.56
1005.491	2.36
1005.916	0.36
1006.342	1.26
1006.767	-6.54
1007.192	3.96
1007.617	-6.54
1008.042	-8.24
1008.468	-6.44
1008.893	-7.64
1009.318	-2.44
1009.743	-0.84
1010.168	1.16
1010.593	1.56
1011.018	-8.14
1011.443	-2.24
1011.868	-0.44
1012.293	-0.94
1012.718	-7.24
1013.143	3.46
1013.567	-1.94
1013.992	-3.94
1014.417	-12.34
1014.842	2.16
1015.267	-7.34
1015.691	-3.24
1016.116	6.36
1016.541	3.66
1016.965	-0.14
1017.39	-0.34
1017.814	0.16
1018.239	-1.74
1018.663	-8.84
1019.088	-6.24
1019.512	-0.24
1019.937	1.76
1020.361	-7.14
1020.785	-13.14
1021.21	-5.84
1021.634	-2.54
1022.058	-3.44
1022.483	3.46
1022.907	-2.54
1023.331	-8.14
1023.755	-1.94
1024.179	-8.34
1024.604	-4.04
1025.028	-5.74
1025.452	-6.24
1025.876	-2.94
1026.3	-2.14
1026.724	-9.64
1027.148	-4.54
1027.572	-5.74
1027.996	-6.84
1028.42	1.06
1028.843	-2.94
1029.267	-6.14
1029.691	-5.44
1030.115	-10.74
1030.539	-10.34
1030.962	-10.84
1031.386	-11.04
1031.81	-1.44
1032.233	-4.04
1032.657	-2.14
1033.08	-2.74
1033.504	-0.74
1033.927	-9.54
1034.351	-4.44
1034.774	-6.64
1035.198	-2.64
1035.621	-6.74
1036.045	-8.64
1036.468	2.66
1036.891	-8.94
1037.315	-14.44
1037.738	-5.44
1038.161	-0.24
1038.584	-8.24
1039.008	-3.54
1039.431	-7.74
1039.854	-4.24
1040.277	-2.24
1040.7	-8.94
1041.123	-1.24
1041.546	-8.54
1041.969	-12.54
1042.392	-6.74
1042.815	-2.64
1043.238	-7.34
1043.661	-3.34
1044.084	-11.74
1044.507	-6.04
1044.93	-0.74
1045.352	-10.34
1045.775	-0.64
1046.198	-5.34
1046.621	-4.34
1047.043	-0.24
1047.466	2.46
1047.889	-6.14
1048.311	-10.34
1048.734	-1.84
1049.156	-6.34
1049.579	-3.84
1050.001	-6.34
1050.424	-2.54
1050.846	-8.14
1051.269	-6.34
1051.691	-9.34
1052.113	-3.74
1052.536	-4.04
1052.958	-3.44
1053.38	-6.64
1053.802	-12.34
1054.225	-0.34
1054.647	-5.64
1055.069	-2.14
1055.491	-3.64
1055.913	-8.54
1056.335	-6.54
1056.757	-8.14
1057.179	-10.64
1057.601	-7.94
1058.023	-6.24
1058.445	-6.94
1058.867	-5.54
1059.289	1.16
1059.711	-8.54
1060.133	-10.04
1060.555	-7.44
1060.976	-5.84
1061.398	-8.84
1061.82	-9.54
1062.241	-8.14
1062.663	-4.84
1063.085	-7.24
1063.506	2.06
1063.928	-6.94
1064.35	-1.84
1064.771	-15.54
1065.193	-7.64
1065.614	-10.14
1066.035	-3.64
1066.457	-2.04
1066.878	5.66
1067.3	-2.84
1067.721	-5.14
1068.142	-3.84
1068.564	-5.04
1068.985	-8.34
1069.406	-9.94
1069.827	-10.74
1070.248	-4.64
1070.67	-9.44
1071.091	-2.34
1071.512	-1.44
1071.933	-6.14
1072.354	-6.54
1072.775	-7.14
1073.196	-5.74
1073.617	-3.74
1074.038	-4.64
1074.459	-2.54
1074.88	-13.74
1075.3	-3.54
1075.721	-10.84
1076.142	-4.74
1076.563	-6.84
1076.983	-9.54
1077.404	-7.94
1077.825	-5.14
1078.246	-3.44
1078.666	-18.44
1079.087	1.36
1079.507	-6.74
1079.928	0.86
1080.348	0.66
1080.769	-6.14
1081.189	-2.44
1081.61	-2.74
1082.03	-3.34
1082.451	-9.94
1082.871	-4.24
1083.291	-7.54
1083.711	-5.94
1084.132	-7.74
1084.552	-1.94
1084.972	-4.04
1085.392	-13.84
1085.813	-11.64
1086.233	-6.84
1086.653	-4.14
1087.073	-0.84
1087.493	-10.74
1087.913	-13.44
1088.333	-8.84
1088.753	-4.74
1089.173	0.56
1089.593	-2.54
1090.013	-2.04
1090.433	-5.34
1090.852	-1.54
1091.272	0.06
1091.692	-3.84
1092.112	-1.04
1092.531	-10.34
1092.951	-12.24
1093.371	-3.14
1093.79	-4.14
1094.21	-2.24
1094.63	-8.94
1095.049	-7.44
1095.469	-5.34
1095.888	-2.84
1096.308	0.96
1096.727	2.96
1097.146	-10.74
1097.566	1.76
1097.985	-10.24
1098.405	-0.94
1098.824	-5.54
1099.243	-4.74
1099.662	-3.64
1100.082	-3.44
1100.501	0.56
1100.92	-5.04
1101.339	-3.74
1101.758	-10.34
