Data from 20171114-ORNL-Ar_H_NY_Subt18_08-07-01-680.txt Node
Date: Tue Nov 14 08:07:01 EST 2017
User: Ender
Spectrometer: HR+D1039
Trigger mode: 0
Integration Time (sec): 2.730000E-2
Scans to average: 10
Electric dark correction enabled: true
Nonlinearity correction enabled: false
Boxcar width: 0
XAxis mode: Wavelengths
Number of Pixels in Spectrum: 2048
>>>>>Begin Spectral Data<<<<<
187.836	-3.56
188.309	-3.56
188.782	-3.56
189.255	0.44
189.728	-0.26
190.201	3.24
190.674	2.14
191.147	4.84
191.619	-9.46
192.092	-2.46
192.565	3.44
193.038	-1.56
193.511	2.14
193.984	-0.46
194.456	2.84
194.929	2.34
195.402	1.04
195.874	-4.76
196.347	-0.96
196.82	-4.86
197.292	4.44
197.765	-1.26
198.237	-10.16
198.71	-0.16
199.182	-3.06
199.655	3.24
200.127	5.04
200.6	-2.96
201.072	-1.56
201.544	-1.96
202.017	-3.06
202.489	-0.46
202.961	0.24
203.433	-5.86
203.906	-9.26
204.378	-7.06
204.85	-3.76
205.322	-12.86
205.794	-4.76
206.266	-2.26
206.739	-3.66
207.211	2.44
207.683	-5.66
208.155	0.44
208.627	-8.26
209.099	-7.06
209.57	-7.96
210.042	-5.16
210.514	3.44
210.986	-5.36
211.458	-6.76
211.93	-5.46
212.402	-0.86
212.873	-3.36
213.345	-14.86
213.817	-3.36
214.288	-3.86
214.76	-16.16
215.232	-5.66
215.703	0.24
216.175	-1.96
216.646	-6.86
217.118	-3.46
217.589	-3.06
218.061	-3.76
218.532	-4.46
219.004	-4.26
219.475	-7.56
219.946	-2.46
220.418	-6.46
220.889	-0.56
221.36	1.14
221.832	-5.46
222.303	-13.96
222.774	-4.16
223.245	-3.56
223.717	-7.06
224.188	-6.36
224.659	-9.86
225.13	-1.86
225.601	-0.96
226.072	1.94
226.543	-5.36
227.014	-6.06
227.485	-5.26
227.956	-7.06
228.427	-5.56
228.898	2.14
229.369	-1.66
229.839	-2.16
230.31	-9.36
230.781	1.14
231.252	-3.36
231.722	0.44
232.193	0.34
232.664	-3.46
233.135	-1.26
233.605	-2.06
234.076	-10.96
234.546	-3.66
235.017	4.94
235.487	-0.46
235.958	-1.46
236.428	-4.96
236.899	-2.86
237.369	-0.26
237.84	-0.66
238.31	4.74
238.78	-2.36
239.251	-4.96
239.721	-7.16
240.191	0.74
240.662	-0.96
241.132	-2.76
241.602	2.94
242.072	-1.56
242.542	0.74
243.013	-1.66
243.483	-0.46
243.953	-8.26
244.423	-3.96
244.893	-10.96
245.363	0.84
245.833	2.54
246.303	-7.16
246.773	5.44
247.243	-0.06
247.712	0.94
248.182	0.04
248.652	4.74
249.122	-6.86
249.592	3.24
250.061	-0.86
250.531	9.14
251.001	-4.46
251.471	7.24
251.94	7.44
252.41	-2.46
252.879	-2.26
253.349	7.74
253.818	4.14
254.288	1.14
254.757	-0.06
255.227	-8.36
255.696	-1.66
256.166	2.04
256.635	-3.96
257.105	5.14
257.574	-0.16
258.043	7.94
258.513	-2.16
258.982	3.94
259.451	-0.06
259.92	-1.36
260.389	3.74
260.859	7.54
261.328	3.04
261.797	3.04
262.266	3.94
262.735	9.14
263.204	1.24
263.673	-2.66
264.142	4.84
264.611	-5.46
265.08	-2.56
265.549	-1.66
266.018	-0.66
266.487	-4.46
266.955	-7.56
267.424	-1.96
267.893	-0.96
268.362	2.24
268.83	0.74
269.299	7.14
269.768	3.64
270.236	1.54
270.705	0.24
271.174	-1.66
271.642	6.94
272.111	1.64
272.579	2.04
273.048	2.64
273.516	1.24
273.985	5.04
274.453	5.74
274.922	10.84
275.39	4.84
275.858	-2.46
276.327	6.04
276.795	13.74
277.263	0.14
277.731	10.04
278.2	11.04
278.668	9.24
279.136	14.54
279.604	2.74
280.072	11.24
280.54	6.24
281.008	8.54
281.477	8.44
281.945	3.74
282.413	7.54
282.881	15.24
283.348	9.34
283.816	8.44
284.284	14.54
284.752	10.44
285.22	13.24
285.688	10.04
286.156	9.24
286.623	17.34
287.091	8.44
287.559	15.04
288.026	9.24
288.494	10.44
288.962	4.34
289.429	-0.86
289.897	16.34
290.364	12.24
290.832	15.64
291.3	4.94
291.767	12.04
292.234	9.34
292.702	3.94
293.169	14.14
293.637	19.54
294.104	17.54
294.571	5.44
295.039	4.24
295.506	9.64
295.973	14.34
296.44	9.34
296.908	15.04
297.375	12.14
297.842	11.14
298.309	14.04
298.776	12.64
299.243	20.44
299.71	7.14
300.177	16.74
300.644	13.94
301.111	17.34
301.578	19.24
302.045	14.44
302.512	18.94
302.979	26.54
303.446	18.44
303.913	4.84
304.379	15.14
304.846	20.04
305.313	17.44
305.78	14.74
306.246	21.54
306.713	20.54
307.18	16.24
307.646	21.14
308.113	18.34
308.579	19.94
309.046	19.04
309.512	16.34
309.979	14.34
310.445	25.64
310.912	27.24
311.378	24.64
311.845	26.64
312.311	22.64
312.777	27.24
313.244	25.04
313.71	34.64
314.176	24.24
314.642	28.04
315.109	21.64
315.575	25.04
316.041	33.64
316.507	22.84
316.973	21.54
317.439	30.04
317.905	31.44
318.371	25.64
318.837	29.94
319.303	31.24
319.769	34.74
320.235	29.24
320.701	30.44
321.167	29.24
321.633	26.34
322.099	33.24
322.564	33.24
323.03	29.84
323.496	36.74
323.962	29.94
324.427	27.64
324.893	39.84
325.359	28.44
325.824	31.74
326.29	32.74
326.755	28.74
327.221	32.84
327.686	27.74
328.152	45.54
328.617	33.74
329.083	36.04
329.548	44.64
330.014	40.14
330.479	37.24
330.944	37.44
331.41	36.94
331.875	37.54
332.34	35.74
332.805	31.64
333.271	38.14
333.736	29.24
334.201	38.74
334.666	44.14
335.131	44.94
335.596	41.74
336.061	43.34
336.526	36.94
336.991	45.94
337.456	48.94
337.921	43.44
338.386	38.04
338.851	40.74
339.316	43.64
339.781	42.34
340.246	49.04
340.711	42.64
341.175	44.14
341.64	37.54
342.105	40.34
342.569	43.24
343.034	51.24
343.499	45.64
343.963	43.04
344.428	52.34
344.893	54.24
345.357	54.24
345.822	49.24
346.286	62.64
346.751	62.34
347.215	62.94
347.679	62.44
348.144	83.94
348.608	70.84
349.073	60.64
349.537	69.64
350.001	69.54
350.465	81.34
350.93	73.84
351.394	75.84
351.858	61.04
352.322	79.04
352.786	71.54
353.25	85.64
353.715	95.54
354.179	87.04
354.643	100.54
355.107	100.64
355.571	87.24
356.035	83.34
356.498	101.24
356.962	93.44
357.426	112.24
357.89	102.94
358.354	76.44
358.818	74.74
359.281	71.44
359.745	68.34
360.209	68.54
360.673	64.64
361.136	72.94
361.6	69.44
362.064	77.64
362.527	74.74
362.991	88.44
363.454	65.64
363.918	64.74
364.381	65.84
364.845	77.74
365.308	78.84
365.772	84.64
366.235	76.04
366.698	72.34
367.162	80.64
367.625	77.74
368.088	84.14
368.552	88.54
369.015	83.84
369.478	89.04
369.941	94.94
370.404	90.54
370.867	94.54
371.331	90.34
371.794	98.44
372.257	86.84
372.72	99.04
373.183	91.04
373.646	86.04
374.109	92.64
374.572	91.14
375.035	89.64
375.497	95.34
375.96	102.54
376.423	98.24
376.886	105.74
377.349	99.54
377.811	101.04
378.274	93.64
378.737	98.44
379.199	104.74
379.662	96.34
380.125	106.64
380.587	98.14
381.05	100.24
381.512	108.04
381.975	119.24
382.437	116.44
382.9	110.94
383.362	117.24
383.825	114.14
384.287	116.94
384.75	115.84
385.212	122.94
385.674	124.74
386.136	125.34
386.599	115.34
387.061	110.94
387.523	113.04
387.985	116.74
388.447	130.64
388.91	116.84
389.372	127.64
389.834	123.04
390.296	119.14
390.758	130.94
391.22	133.44
391.682	136.84
392.144	145.84
392.606	142.14
393.068	136.74
393.529	147.04
393.991	144.04
394.453	123.24
394.915	130.64
395.377	134.34
395.838	135.24
396.3	136.54
396.762	133.54
397.224	129.84
397.685	125.14
398.147	137.64
398.608	128.64
399.07	132.44
399.531	136.24
399.993	136.64
400.454	143.04
400.916	147.64
401.377	144.64
401.839	149.14
402.3	147.04
402.762	161.24
403.223	176.94
403.684	170.24
404.145	166.44
404.607	158.14
405.068	162.64
405.529	164.44
405.99	183.04
406.451	168.54
406.913	169.74
407.374	163.94
407.835	162.64
408.296	170.54
408.757	164.54
409.218	174.14
409.679	174.14
410.14	169.94
410.601	174.44
411.062	175.94
411.522	182.84
411.983	173.04
412.444	176.34
412.905	179.64
413.366	178.44
413.826	192.94
414.287	218.84
414.748	269.04
415.208	256.34
415.669	218.14
416.13	206.34
416.59	214.34
417.051	222.14
417.511	218.14
417.972	244.54
418.432	254.44
418.893	290.54
419.353	249.04
419.814	206.14
420.274	184.04
420.734	176.64
421.195	196.04
421.655	194.14
422.115	196.74
422.576	196.74
423.036	208.14
423.496	209.54
423.956	218.04
424.416	230.54
424.876	273.14
425.336	257.54
425.797	272.74
426.257	255.24
426.717	236.94
427.177	229.24
427.637	224.24
428.097	238.74
428.556	241.24
429.016	274.64
429.476	252.84
429.936	283.24
430.396	280.64
430.856	283.64
431.315	303.44
431.775	345.04
432.235	371.54
432.694	340.94
433.154	347.34
433.614	375.64
434.073	331.44
434.533	284.24
434.993	264.94
435.452	279.14
435.912	287.04
436.371	281.34
436.83	274.64
437.29	265.24
437.749	251.84
438.209	249.74
438.668	276.44
439.127	283.24
439.587	262.84
440.046	256.24
440.505	267.54
440.964	279.74
441.424	326.04
441.883	314.94
442.342	264.34
442.801	232.44
443.26	223.04
443.719	235.94
444.178	223.84
444.637	213.84
445.096	229.84
445.555	236.04
446.014	234.04
446.473	237.84
446.932	237.34
447.391	242.54
447.849	237.64
448.308	229.54
448.767	231.24
449.226	248.34
449.685	251.14
450.143	263.94
450.602	247.84
451.061	241.54
451.519	243.54
451.978	242.04
452.436	247.24
452.895	250.44
453.353	264.64
453.812	250.54
454.27	254.04
454.729	244.24
455.187	245.64
455.646	258.94
456.104	263.44
456.562	275.04
457.021	273.74
457.479	268.64
457.937	279.74
458.395	280.04
458.854	255.14
459.312	270.04
459.77	290.34
460.228	268.34
460.686	252.54
461.144	263.74
461.602	254.54
462.06	257.54
462.518	261.14
462.976	270.14
463.434	265.64
463.892	276.24
464.35	288.34
464.808	302.44
465.266	276.44
465.724	282.24
466.181	288.74
466.639	280.34
467.097	301.24
467.555	311.34
468.012	313.54
468.47	323.64
468.928	338.74
469.385	357.14
469.843	363.24
470.3	368.84
470.758	376.44
471.215	396.94
471.673	411.94
472.13	414.24
472.588	429.54
473.045	394.14
473.503	395.54
473.96	413.04
474.417	426.64
474.875	447.74
475.332	493.24
475.789	487.74
476.246	481.24
476.704	496.94
477.161	518.44
477.618	542.14
478.075	583.94
478.532	626.04
478.989	696.24
479.446	806.14
479.903	770.74
480.36	814.54
480.817	856.44
481.274	949.44
481.731	1036.24
482.188	1125.44
482.645	1247.24
483.102	1328.34
483.558	1458.84
484.015	1493.04
484.472	1465.94
484.929	1417.44
485.385	1370.94
485.842	1347.54
486.299	1296.14
486.755	1253.54
487.212	1069.64
487.668	918.24
488.125	854.74
488.582	790.74
489.038	760.64
489.494	732.44
489.951	706.24
490.407	686.54
490.864	662.04
491.32	677.44
491.776	659.24
492.233	667.44
492.689	638.04
493.145	638.04
493.602	623.44
494.058	633.04
494.514	637.84
494.97	661.94
495.426	677.14
495.882	651.64
496.338	638.74
496.794	650.64
497.251	642.24
497.707	656.14
498.163	647.94
498.618	674.84
499.074	669.04
499.53	698.94
499.986	698.84
500.442	672.54
500.898	650.44
501.354	635.34
501.809	646.34
502.265	652.14
502.721	656.74
503.177	657.64
503.632	666.24
504.088	678.14
504.543	698.24
504.999	720.74
505.455	679.34
505.91	672.04
506.366	663.54
506.821	660.74
507.277	664.14
507.732	657.34
508.187	653.74
508.643	678.74
509.098	673.64
509.553	693.84
510.009	701.74
510.464	706.44
510.919	725.44
511.375	730.54
511.83	748.04
512.285	759.54
512.74	790.14
513.195	822.14
513.65	808.24
514.105	796.54
514.56	808.74
515.015	814.94
515.47	827.64
515.925	816.54
516.38	825.54
516.835	839.14
517.29	812.64
517.745	803.84
518.2	803.14
518.655	790.24
519.109	776.74
519.564	781.14
520.019	761.44
520.474	774.74
520.928	766.94
521.383	753.04
521.838	745.24
522.292	750.44
522.747	744.44
523.201	746.54
523.656	734.54
524.11	726.94
524.565	725.44
525.019	736.34
525.474	734.34
525.928	736.54
526.382	736.94
526.837	725.64
527.291	735.24
527.745	734.54
528.2	725.44
528.654	722.94
529.108	719.84
529.562	721.94
530.016	720.44
530.47	723.14
530.925	721.44
531.379	722.44
531.833	727.34
532.287	738.64
532.741	747.54
533.195	741.54
533.649	747.54
534.103	749.44
534.556	735.94
535.01	746.24
535.464	737.24
535.918	749.84
536.372	748.34
536.826	750.84
537.279	734.74
537.733	750.74
538.187	741.84
538.64	751.64
539.094	751.84
539.548	762.44
540.001	766.94
540.455	761.74
540.908	775.74
541.362	783.34
541.815	784.04
542.269	793.54
542.722	798.74
543.175	798.14
543.629	810.84
544.082	825.64
544.536	825.94
544.989	827.54
545.442	839.64
545.895	841.44
546.349	839.64
546.802	833.34
547.255	829.34
547.708	849.64
548.161	848.84
548.614	866.94
549.067	866.84
549.52	865.94
549.973	854.54
550.426	840.54
550.879	845.94
551.332	838.84
551.785	851.24
552.238	845.64
552.691	858.94
553.144	865.34
553.596	890.44
554.049	913.44
554.502	943.14
554.955	949.44
555.407	957.64
555.86	943.84
556.313	940.84
556.765	927.84
557.218	932.74
557.67	935.14
558.123	919.84
558.576	923.94
559.028	915.44
559.48	934.34
559.933	924.14
560.385	885.44
560.838	851.74
561.29	838.14
561.742	829.84
562.195	807.14
562.647	813.04
563.099	816.44
563.551	814.44
564.004	830.54
564.456	806.34
564.908	790.34
565.36	776.64
565.812	762.84
566.264	759.14
566.716	747.04
567.168	739.14
567.62	748.34
568.072	738.74
568.524	732.14
568.976	728.54
569.428	721.14
569.88	716.74
570.332	720.84
570.784	730.34
571.235	716.74
571.687	736.54
572.139	746.34
572.59	752.04
573.042	756.94
573.494	744.94
573.945	743.74
574.397	726.24
574.849	731.34
575.3	730.34
575.752	725.14
576.203	711.14
576.655	718.14
577.106	713.24
577.557	697.44
578.009	701.94
578.46	706.64
578.912	691.54
579.363	702.24
579.814	705.34
580.265	693.54
580.717	691.94
581.168	701.24
581.619	710.14
582.07	718.94
582.521	705.84
582.972	706.44
583.423	701.44
583.875	706.44
584.326	718.24
584.777	733.84
585.227	752.54
585.678	771.94
586.129	783.94
586.58	808.64
587.031	830.44
587.482	862.94
587.933	897.84
588.384	863.54
588.834	837.24
589.285	808.84
589.736	803.64
590.186	809.44
590.637	806.44
591.088	781.64
591.538	775.74
591.989	768.54
592.439	769.94
592.89	739.74
593.34	746.64
593.791	730.34
594.241	731.44
594.692	732.24
595.142	726.84
595.593	729.94
596.043	742.84
596.493	740.34
596.943	737.44
597.394	749.84
597.844	748.44
598.294	771.14
598.744	793.64
599.195	818.44
599.645	861.94
600.095	896.84
600.545	958.44
600.995	1012.54
601.445	1069.64
601.895	1133.44
602.345	1178.64
602.795	1162.84
603.245	1123.64
603.695	1070.44
604.145	1008.74
604.594	966.74
605.044	899.24
605.494	841.64
605.944	788.34
606.393	784.74
606.843	757.94
607.293	758.24
607.743	766.54
608.192	774.44
608.642	779.44
609.091	784.74
609.541	793.94
609.99	796.64
610.44	790.14
610.889	740.44
611.339	715.24
611.788	706.04
612.238	722.14
612.687	731.24
613.136	727.64
613.586	734.74
614.035	728.14
614.484	732.94
614.933	730.74
615.383	730.94
615.832	737.74
616.281	727.94
616.73	710.34
617.179	685.44
617.628	673.04
618.077	653.74
618.526	650.04
618.975	645.94
619.424	646.44
619.873	641.64
620.322	649.44
620.771	643.64
621.22	633.74
621.669	617.54
622.118	614.04
622.567	604.24
623.015	587.64
623.464	594.74
623.913	586.94
624.361	570.14
624.81	571.54
625.259	578.24
625.707	583.24
626.156	572.34
626.604	592.24
627.053	570.14
627.501	585.84
627.95	596.44
628.398	610.94
628.847	593.34
629.295	588.04
629.744	601.44
630.192	584.54
630.64	582.44
631.089	563.54
631.537	559.14
631.985	544.24
632.433	549.14
632.881	546.84
633.33	558.84
633.778	540.24
634.226	546.04
634.674	558.84
635.122	560.54
635.57	574.74
636.018	580.04
636.466	577.14
636.914	580.74
637.362	600.94
637.81	599.44
638.258	611.74
638.705	606.84
639.153	638.04
639.601	651.44
640.049	661.74
640.497	699.24
640.944	718.14
641.392	671.04
641.84	638.64
642.287	602.74
642.735	583.84
643.182	585.64
643.63	584.14
644.078	586.64
644.525	594.74
644.973	599.54
645.42	609.74
645.867	638.74
646.315	655.84
646.762	669.84
647.21	707.34
647.657	725.14
648.104	754.54
648.551	773.44
648.999	831.24
649.446	903.64
649.893	979.64
650.34	1131.64
650.787	1343.74
651.234	1650.84
651.682	2143.44
652.129	2897.84
652.576	4095.44
653.023	5994.64
653.47	8070.34
653.917	10057.84
654.363	11597.54
654.81	12826.24
655.257	12137.64
655.704	8022.14
656.151	4844.44
656.598	3184.94
657.044	2279.64
657.491	1776.94
657.938	1438.04
658.385	1216.34
658.831	1066.24
659.278	949.94
659.724	859.74
660.171	794.44
660.618	718.54
661.064	692.44
661.511	670.84
661.957	658.14
662.404	643.14
662.85	658.64
663.296	634.04
663.743	572.94
664.189	550.34
664.635	547.74
665.082	541.24
665.528	542.94
665.974	532.34
666.42	522.44
666.867	516.74
667.313	503.44
667.759	485.94
668.205	468.64
668.651	465.84
669.097	466.04
669.543	459.94
669.989	457.04
670.435	458.44
670.881	465.94
671.327	469.54
671.773	490.84
672.219	508.64
672.665	566.34
673.11	614.34
673.556	665.14
674.002	695.54
674.448	676.94
674.893	566.44
675.339	503.14
675.785	469.14
676.23	434.34
676.676	415.24
677.122	397.64
677.567	387.54
678.013	381.24
678.458	379.34
678.904	379.04
679.349	369.44
679.794	369.64
680.24	369.54
680.685	364.74
681.131	360.74
681.576	363.34
682.021	373.44
682.466	356.64
682.912	365.34
683.357	366.64
683.802	407.34
684.247	430.24
684.692	472.84
685.137	517.44
685.583	558.94
686.028	589.04
686.473	542.34
686.918	464.34
687.363	437.14
687.807	409.54
688.252	386.24
688.697	378.44
689.142	351.94
689.587	341.74
690.032	345.94
690.477	358.24
690.921	372.94
691.366	400.84
691.811	419.44
692.255	448.04
692.7	483.84
693.145	523.84
693.589	731.34
694.034	1179.84
694.478	1622.44
694.923	1822.54
695.367	2371.94
695.812	1258.24
696.256	530.04
696.701	400.04
697.145	360.24
697.59	348.04
698.034	329.94
698.478	343.64
698.922	339.24
699.367	343.84
699.811	347.54
700.255	367.34
700.699	395.84
701.143	439.94
701.588	500.24
702.032	537.54
702.476	535.44
702.92	511.04
703.364	516.44
703.808	672.84
704.252	1093.84
704.696	1537.74
705.14	1749.34
705.584	2237.04
706.027	1125.44
706.471	545.34
706.915	419.44
707.359	371.14
707.803	340.24
708.246	319.84
708.69	324.34
709.134	319.44
709.577	317.84
710.021	329.14
710.465	321.84
710.908	307.14
711.352	312.94
711.795	323.64
712.239	367.74
712.682	391.44
713.126	436.44
713.569	477.64
714.012	371.14
714.456	314.44
714.899	303.14
715.342	285.04
715.786	277.14
716.229	273.14
716.672	268.34
717.115	254.84
717.558	258.74
718.002	257.54
718.445	277.64
718.888	295.34
719.331	305.04
719.774	313.24
720.217	313.24
720.66	291.94
721.103	274.14
721.546	266.64
721.989	259.84
722.432	244.44
722.874	243.04
723.317	232.74
723.76	244.04
724.203	272.04
724.645	326.84
725.088	461.24
725.531	591.94
725.974	671.34
726.416	573.54
726.859	324.74
727.301	255.14
727.744	251.14
728.187	243.44
728.629	251.14
729.071	252.54
729.514	279.74
729.956	283.84
730.399	296.74
730.841	299.44
731.283	288.44
731.726	277.04
732.168	274.54
732.61	285.14
733.053	296.84
733.495	329.14
733.937	367.74
734.379	414.04
734.821	461.34
735.263	570.74
735.705	877.84
736.148	1676.04
736.59	2720.04
737.032	3213.44
737.474	2616.24
737.916	858.94
738.357	452.84
738.799	345.74
739.241	315.44
739.683	294.24
740.125	306.24
740.567	308.04
741.008	325.14
741.45	333.44
741.892	334.84
742.334	369.84
742.775	379.04
743.217	367.94
743.658	288.24
744.1	273.14
744.542	275.04
744.983	333.94
745.425	363.24
745.866	355.74
746.307	287.74
746.749	293.84
747.19	340.84
747.632	484.14
748.073	936.84
748.514	1973.84
748.956	2992.74
749.397	3757.24
749.838	3124.84
750.279	3114.24
750.72	1585.14
751.162	581.24
751.603	342.04
752.044	269.14
752.485	221.94
752.926	213.84
753.367	206.04
753.808	202.34
754.249	199.64
754.69	192.84
755.131	193.04
755.572	190.24
756.013	188.24
756.453	188.84
756.894	194.84
757.335	198.24
757.776	198.14
758.216	196.04
758.657	199.24
759.098	211.54
759.538	241.04
759.979	282.74
760.42	397.94
760.86	743.74
761.301	1953.14
761.741	4710.84
762.182	6715.74
762.622	4787.74
763.063	1378.54
763.503	565.24
763.943	346.54
764.384	279.94
764.824	259.64
765.264	242.04
765.705	216.64
766.145	193.74
766.585	172.14
767.025	176.94
767.465	164.64
767.906	185.84
768.346	211.84
768.786	212.74
769.226	223.34
769.666	322.54
770.106	663.04
770.546	1646.44
770.986	2781.94
771.426	2486.24
771.866	828.94
772.306	345.34
772.745	214.04
773.185	182.34
773.625	166.84
774.065	153.94
774.505	164.54
774.944	217.94
775.384	367.54
775.824	615.24
776.263	603.04
776.703	292.34
777.142	157.54
777.582	142.34
778.021	131.64
778.461	128.14
778.9	129.24
779.34	129.44
779.779	121.54
780.219	119.54
780.658	114.74
781.097	112.64
781.537	113.14
781.976	115.34
782.415	108.24
782.855	110.24
783.294	103.94
783.733	107.04
784.172	107.74
784.611	100.94
785.05	111.94
785.489	116.24
785.928	111.04
786.367	126.54
786.806	114.84
787.245	137.94
787.684	137.24
788.123	157.54
788.562	140.64
789.001	129.04
789.44	125.74
789.879	118.84
790.317	121.14
790.756	133.14
791.195	127.84
791.634	153.44
792.072	208.14
792.511	389.84
792.95	1060.64
793.388	2217.84
793.827	2010.64
794.265	696.64
794.704	292.24
795.142	184.04
795.581	159.54
796.019	144.84
796.458	136.84
796.896	123.74
797.334	135.14
797.773	161.14
798.211	234.14
798.649	467.24
799.087	1070.84
799.526	1684.34
799.964	2113.44
800.402	2115.94
800.84	798.94
801.278	322.94
801.716	192.64
802.154	159.94
802.592	146.94
803.03	145.84
803.468	148.04
803.906	153.24
804.344	157.24
804.782	143.14
805.22	139.24
805.658	140.14
806.096	157.44
806.533	162.14
806.971	180.74
807.409	228.04
807.847	330.34
808.284	709.04
808.722	1988.14
809.16	3468.94
809.597	3314.84
810.035	5747.34
810.472	6056.94
810.91	2210.14
811.347	845.64
811.785	423.34
812.222	277.84
812.66	207.44
813.097	171.84
813.535	149.04
813.972	134.54
814.409	127.14
814.846	111.04
815.284	114.04
815.721	101.74
816.158	105.24
816.595	113.04
817.032	157.04
817.47	185.54
817.907	143.64
818.344	104.84
818.781	102.44
819.218	97.54
819.655	123.34
820.092	198.14
820.529	222.44
820.966	183.34
821.403	129.74
821.839	105.14
822.276	106.64
822.713	126.04
823.15	139.44
823.587	123.94
824.023	154.94
824.46	319.84
824.897	941.54
825.333	1431.34
825.77	606.94
826.206	250.14
826.643	140.94
827.08	106.14
827.516	83.44
827.953	85.14
828.389	86.34
828.825	81.24
829.262	72.94
829.698	73.24
830.135	71.34
830.571	66.34
831.007	64.74
831.443	60.54
831.88	71.64
832.316	59.24
832.752	71.74
833.188	65.84
833.624	62.94
834.06	65.94
834.497	76.24
834.933	69.54
835.369	72.44
835.805	72.34
836.241	76.04
836.677	85.74
837.112	96.84
837.548	107.54
837.984	139.94
838.42	206.24
838.856	529.64
839.292	1604.94
839.727	2423.44
840.163	1148.24
840.599	980.14
841.034	2140.74
841.47	2213.54
841.906	815.84
842.341	346.44
842.777	204.94
843.212	214.74
843.648	201.04
844.083	116.74
844.519	86.04
844.954	75.74
845.39	56.14
845.825	54.94
846.261	52.34
846.696	66.84
847.131	55.84
847.566	61.54
848.002	44.74
848.437	51.74
848.872	63.64
849.307	67.74
849.742	92.54
850.177	190.44
850.613	589.64
851.048	931.64
851.483	408.14
851.918	164.84
852.353	91.84
852.788	58.24
853.223	51.24
853.657	54.44
854.092	49.14
854.527	45.24
854.962	49.24
855.397	45.24
855.832	50.44
856.266	39.64
856.701	43.64
857.136	35.44
857.57	40.34
858.005	52.04
858.44	59.24
858.874	51.34
859.309	56.34
859.743	49.14
860.178	49.94
860.612	40.64
861.047	52.94
861.481	72.04
861.915	73.34
862.35	55.54
862.784	39.14
863.218	37.34
863.653	38.54
864.087	47.84
864.521	60.64
864.955	72.94
865.39	153.34
865.824	176.94
866.258	117.94
866.692	179.24
867.126	193.14
867.56	113.04
867.994	61.94
868.428	36.94
868.862	50.84
869.296	51.24
869.73	60.74
870.164	52.64
870.598	52.84
871.031	39.24
871.465	38.54
871.899	32.04
872.333	27.54
872.766	31.44
873.2	20.44
873.634	29.34
874.067	21.74
874.501	27.44
874.935	36.64
875.368	36.84
875.802	32.04
876.235	29.94
876.669	26.74
877.102	15.74
877.535	27.94
877.969	23.84
878.402	21.14
878.836	18.04
879.269	26.14
879.702	22.64
880.135	21.94
880.569	22.84
881.002	24.44
881.435	25.34
881.868	17.64
882.301	25.04
882.734	18.84
883.167	25.74
883.601	19.74
884.034	17.64
884.467	17.04
884.899	23.14
885.332	22.04
885.765	15.14
886.198	18.24
886.631	24.54
887.064	18.94
887.497	23.04
887.929	25.04
888.362	16.24
888.795	12.54
889.228	22.14
889.66	21.24
890.093	18.14
890.526	20.94
890.958	22.34
891.391	17.44
891.823	23.14
892.256	16.74
892.688	8.04
893.121	18.74
893.553	19.44
893.985	27.04
894.418	23.34
894.85	9.34
895.282	16.94
895.715	17.54
896.147	16.54
896.579	18.94
897.011	15.44
897.444	21.24
897.876	17.34
898.308	17.24
898.74	16.34
899.172	14.94
899.604	21.64
900.036	16.94
900.468	7.84
900.9	19.34
901.332	18.04
901.764	12.74
902.196	21.64
902.628	18.54
903.06	17.74
903.491	26.64
903.923	20.54
904.355	16.64
904.787	22.74
905.218	22.34
905.65	20.74
906.082	18.14
906.513	15.14
906.945	19.94
907.376	16.74
907.808	18.04
908.239	22.64
908.671	19.64
909.102	20.14
909.534	30.24
909.965	45.94
910.397	94.24
910.828	327.74
911.259	493.34
911.691	227.54
912.122	106.44
912.553	58.14
912.984	31.74
913.415	24.84
913.847	26.74
914.278	12.04
914.709	11.44
915.14	16.14
915.571	15.44
916.002	12.34
916.433	22.44
916.864	18.04
917.295	12.04
917.726	22.74
918.157	17.94
918.587	32.94
919.018	20.14
919.449	21.84
919.88	22.24
920.311	33.24
920.741	50.74
921.172	172.04
921.603	159.94
922.033	78.34
922.464	48.24
922.895	20.24
923.325	22.24
923.756	13.24
924.186	13.14
924.617	16.44
925.047	21.84
925.478	26.84
925.908	20.04
926.338	11.54
926.769	13.74
927.199	16.64
927.629	7.54
928.06	19.64
928.49	11.04
928.92	17.94
929.35	12.54
929.78	13.34
930.21	9.44
930.641	6.94
931.071	9.94
931.501	3.24
931.931	13.74
932.361	5.44
932.791	2.64
933.221	5.84
933.651	0.24
934.08	18.34
934.51	31.44
934.94	9.44
935.37	6.44
935.8	14.24
936.229	11.04
936.659	7.84
937.089	5.24
937.519	13.84
937.948	25.14
938.378	15.14
938.807	4.24
939.237	1.64
939.666	10.64
940.096	-4.06
940.525	3.24
940.955	3.94
941.384	4.04
941.814	-1.46
942.243	-2.26
942.672	2.74
943.102	-2.46
943.531	3.94
943.96	6.84
944.39	9.04
944.819	-4.06
945.248	3.14
945.677	-0.46
946.106	6.54
946.535	7.34
946.964	3.84
947.393	-0.86
947.822	-0.76
948.251	-4.46
948.68	5.04
949.109	3.74
949.538	4.34
949.967	-0.96
950.396	3.94
950.825	1.14
951.254	-0.96
951.682	-6.66
952.111	1.64
952.54	5.64
952.969	0.04
953.397	-2.46
953.826	-3.76
954.254	-3.06
954.683	1.04
955.112	-2.46
955.54	3.74
955.969	1.54
956.397	5.34
956.826	-3.06
957.254	4.14
957.682	5.44
958.111	0.54
958.539	0.74
958.967	-1.96
959.396	-5.46
959.824	2.14
960.252	1.94
960.68	-3.36
961.109	-2.06
961.537	2.74
961.965	2.74
962.393	7.34
962.821	-1.36
963.249	0.04
963.677	3.44
964.105	3.14
964.533	44.34
964.961	38.64
965.389	22.04
965.817	10.24
966.245	6.04
966.672	-3.46
967.1	-4.96
967.528	0.74
967.956	-4.16
968.383	-0.66
968.811	-0.36
969.239	-1.76
969.666	-2.66
970.094	2.44
970.522	-0.56
970.949	5.74
971.377	-4.36
971.804	-6.86
972.232	0.64
972.659	3.84
973.087	-7.06
973.514	2.24
973.941	-2.36
974.369	5.64
974.796	-0.86
975.223	-1.96
975.651	-10.16
976.078	3.94
976.505	2.74
976.932	4.94
977.359	19.24
977.786	14.84
978.214	9.64
978.641	3.54
979.068	-0.16
979.495	-5.46
979.922	-1.96
980.349	-6.66
980.776	3.94
981.202	0.64
981.629	2.94
982.056	0.84
982.483	-4.46
982.91	1.04
983.337	-7.46
983.763	0.74
984.19	0.84
984.617	-5.26
985.043	-6.56
985.47	4.84
985.897	-4.66
986.323	-3.96
986.75	2.94
987.176	-2.56
987.603	1.54
988.029	2.84
988.456	3.34
988.882	0.84
989.308	-7.96
989.735	2.74
990.161	0.54
990.587	-4.46
991.014	1.24
991.44	7.74
991.866	-2.16
992.292	2.94
992.719	-0.16
993.145	-1.36
993.571	-4.06
993.997	-4.36
994.423	-0.06
994.849	-5.46
995.275	-0.56
995.701	0.94
996.127	2.94
996.553	2.94
996.979	-2.06
997.405	-1.66
997.83	-5.16
998.256	-4.26
998.682	-5.26
999.108	-4.86
999.534	-5.16
999.959	-5.06
1000.385	-2.06
1000.811	2.44
1001.236	-3.66
1001.662	-9.66
1002.087	-6.56
1002.513	0.54
1002.938	3.24
1003.364	-8.56
1003.789	-0.36
1004.215	-0.36
1004.64	6.04
1005.066	4.14
1005.491	-4.26
1005.916	-7.66
1006.342	-2.76
1006.767	-3.16
1007.192	0.74
1007.617	-5.46
1008.042	-6.36
1008.468	-7.56
1008.893	3.14
1009.318	-2.36
1009.743	-4.86
1010.168	0.94
1010.593	-0.06
1011.018	-9.56
1011.443	-2.76
1011.868	7.44
1012.293	-1.46
1012.718	-10.06
1013.143	-3.56
1013.567	-0.46
1013.992	-0.26
1014.417	-6.46
1014.842	-0.86
1015.267	4.34
1015.691	-7.26
1016.116	7.74
1016.541	-0.16
1016.965	2.44
1017.39	1.54
1017.814	2.74
1018.239	-3.76
1018.663	-9.36
1019.088	-7.76
1019.512	-2.56
1019.937	2.04
1020.361	-1.36
1020.785	-10.16
1021.21	-0.86
1021.634	-6.06
1022.058	-3.86
1022.483	4.44
1022.907	-2.46
1023.331	-0.46
1023.755	-6.86
1024.179	-1.26
1024.604	-7.76
1025.028	-7.76
1025.452	-4.36
1025.876	-6.36
1026.3	-2.36
1026.724	-11.56
1027.148	-0.56
1027.572	-6.26
1027.996	-5.76
1028.42	-7.06
1028.843	-0.26
1029.267	-3.86
1029.691	-2.66
1030.115	-5.86
1030.539	-5.76
1030.962	-12.36
1031.386	-9.66
1031.81	-1.56
1032.233	-1.56
1032.657	-6.46
1033.08	-3.16
1033.504	0.74
1033.927	-8.86
1034.351	-1.26
1034.774	-4.26
1035.198	-2.46
1035.621	-8.86
1036.045	-7.56
1036.468	2.24
1036.891	-7.36
1037.315	-10.06
1037.738	-7.26
1038.161	2.94
1038.584	-3.16
1039.008	-2.86
1039.431	-6.56
1039.854	-5.26
1040.277	-5.36
1040.7	-6.76
1041.123	-2.46
1041.546	-9.66
1041.969	-2.06
1042.392	-12.06
1042.815	-4.26
1043.238	0.14
1043.661	4.74
1044.084	-7.16
1044.507	-6.96
1044.93	-3.96
1045.352	-10.26
1045.775	-2.46
1046.198	-2.36
1046.621	2.44
1047.043	-2.46
1047.466	7.34
1047.889	-2.26
1048.311	-6.56
1048.734	-4.66
1049.156	-2.96
1049.579	-4.46
1050.001	-3.36
1050.424	5.84
1050.846	-7.36
1051.269	-5.26
1051.691	-7.76
1052.113	-2.36
1052.536	3.84
1052.958	-0.96
1053.38	-2.66
1053.802	-9.46
1054.225	4.04
1054.647	-10.96
1055.069	-2.36
1055.491	-3.56
1055.913	-4.76
1056.335	-4.96
1056.757	-5.36
1057.179	-4.26
1057.601	-8.86
1058.023	-0.66
1058.445	-4.36
1058.867	-0.76
1059.289	-3.36
1059.711	-4.36
1060.133	-3.16
1060.555	-5.36
1060.976	-7.16
1061.398	-3.16
1061.82	-4.56
1062.241	-6.56
1062.663	-6.96
1063.085	-4.16
1063.506	1.84
1063.928	-2.36
1064.35	-4.16
1064.771	-16.16
1065.193	0.24
1065.614	-6.36
1066.035	-2.36
1066.457	1.94
1066.878	3.84
1067.3	-5.16
1067.721	-4.56
1068.142	-7.36
1068.564	-6.56
1068.985	-13.36
1069.406	-1.96
1069.827	-3.86
1070.248	1.54
1070.67	-11.46
1071.091	-6.46
1071.512	-4.96
1071.933	-8.46
1072.354	-5.86
1072.775	-1.66
1073.196	-7.56
1073.617	0.64
1074.038	-9.96
1074.459	-4.86
1074.88	-8.66
1075.3	4.04
1075.721	-4.86
1076.142	5.64
1076.563	-1.16
1076.983	-15.56
1077.404	-5.36
1077.825	-10.56
1078.246	-3.46
1078.666	-6.06
1079.087	-5.66
1079.507	-11.16
1079.928	-1.66
1080.348	-0.76
1080.769	-6.56
1081.189	-3.46
1081.61	-9.76
1082.03	-9.76
1082.451	-4.46
1082.871	-3.36
1083.291	-6.76
1083.711	-14.26
1084.132	-5.26
1084.552	-13.76
1084.972	-5.06
1085.392	-7.86
1085.813	-12.76
1086.233	-3.56
1086.653	-4.36
1087.073	-4.96
1087.493	-3.86
1087.913	-4.26
1088.333	-11.16
1088.753	-3.56
1089.173	3.24
1089.593	-4.86
1090.013	0.24
1090.433	-0.16
1090.852	-4.06
1091.272	-0.26
1091.692	-0.96
1092.112	-2.76
1092.531	-8.26
1092.951	-13.06
1093.371	-4.86
1093.79	0.94
1094.21	-4.56
1094.63	-6.16
1095.049	-2.26
1095.469	-2.66
1095.888	2.34
1096.308	1.74
1096.727	4.64
1097.146	-5.76
1097.566	-4.36
1097.985	-6.06
1098.405	-2.46
1098.824	-6.06
1099.243	0.04
1099.662	-6.66
1100.082	-6.06
1100.501	-0.96
1100.92	-6.66
1101.339	-3.26
1101.758	-3.26
