Data from 20171114-ORNL-Ar_H_NY_Subt18_08-03-31-489.txt Node
Date: Tue Nov 14 08:03:31 EST 2017
User: Ender
Spectrometer: HR+D1039
Trigger mode: 0
Integration Time (sec): 2.730000E-2
Scans to average: 10
Electric dark correction enabled: true
Nonlinearity correction enabled: false
Boxcar width: 0
XAxis mode: Wavelengths
Number of Pixels in Spectrum: 2048
>>>>>Begin Spectral Data<<<<<
187.836	-4.77
188.309	-4.77
188.782	-4.77
189.255	0.43
189.728	-0.77
190.201	6.83
190.674	-2.07
191.147	0.83
191.619	-14.47
192.092	2.43
192.565	7.43
193.038	1.23
193.511	2.43
193.984	1.03
194.456	-2.07
194.929	1.43
195.402	0.83
195.874	-0.77
196.347	0.53
196.82	-13.17
197.292	1.43
197.765	-1.27
198.237	-4.37
198.71	3.03
199.182	-3.17
199.655	2.93
200.127	1.53
200.6	-3.77
201.072	-3.17
201.544	-6.27
202.017	-7.27
202.489	-0.27
202.961	-2.97
203.433	-6.37
203.906	-2.77
204.378	2.33
204.85	-4.17
205.322	-6.87
205.794	-2.67
206.266	-3.47
206.739	-6.77
207.211	0.83
207.683	-3.07
208.155	-5.47
208.627	-5.77
209.099	-6.77
209.57	-10.37
210.042	-11.37
210.514	-6.47
210.986	-1.97
211.458	-10.97
211.93	-4.97
212.402	1.23
212.873	-6.77
213.345	-7.77
213.817	-13.67
214.288	-6.27
214.76	-14.57
215.232	-4.17
215.703	-6.97
216.175	-1.97
216.646	-5.37
217.118	-8.47
217.589	-2.37
218.061	-4.27
218.532	-5.37
219.004	-5.97
219.475	-3.87
219.946	-9.37
220.418	-8.67
220.889	4.43
221.36	2.43
221.832	-4.67
222.303	-6.57
222.774	0.33
223.245	-5.97
223.717	-9.47
224.188	-6.97
224.659	-6.97
225.13	-8.67
225.601	-1.67
226.072	-4.17
226.543	-3.37
227.014	-5.67
227.485	-5.67
227.956	-7.67
228.427	-2.77
228.898	3.93
229.369	-0.37
229.839	-3.67
230.31	-10.47
230.781	0.93
231.252	-5.67
231.722	-8.27
232.193	-10.97
232.664	-6.57
233.135	-2.67
233.605	-3.57
234.076	-8.67
234.546	-1.67
235.017	-2.67
235.487	-9.77
235.958	-7.37
236.428	-8.37
236.899	-3.87
237.369	-8.07
237.84	-9.47
238.31	3.03
238.78	-4.77
239.251	-8.97
239.721	-4.57
240.191	-4.07
240.662	-5.47
241.132	-6.07
241.602	-5.37
242.072	-6.07
242.542	-1.47
243.013	-6.37
243.483	1.13
243.953	3.03
244.423	-2.47
244.893	-12.87
245.363	-3.77
245.833	-1.57
246.303	-10.97
246.773	-1.97
247.243	-1.47
247.712	-8.57
248.182	-4.27
248.652	-2.17
249.122	-13.57
249.592	-10.97
250.061	-3.87
250.531	-0.37
251.001	-6.97
251.471	0.03
251.94	-1.57
252.41	-6.97
252.879	-8.07
253.349	0.93
253.818	4.73
254.288	1.03
254.757	-3.77
255.227	-5.67
255.696	-1.27
256.166	-9.97
256.635	-1.67
257.105	-1.77
257.574	-9.47
258.043	-3.47
258.513	-8.77
258.982	-4.97
259.451	-8.57
259.92	-7.07
260.389	-0.67
260.859	5.13
261.328	-1.47
261.797	-1.67
262.266	-8.57
262.735	-2.17
263.204	-4.17
263.673	-7.07
264.142	-2.47
264.611	-9.87
265.08	-9.57
265.549	-8.57
266.018	-1.67
266.487	-10.07
266.955	-13.77
267.424	-12.67
267.893	-2.47
268.362	-5.87
268.83	-6.67
269.299	-1.37
269.768	-0.27
270.236	-2.57
270.705	-7.17
271.174	-5.07
271.642	-8.17
272.111	-9.77
272.579	-7.07
273.048	-9.77
273.516	-6.37
273.985	-8.07
274.453	2.13
274.922	-3.27
275.39	-1.07
275.858	-14.87
276.327	-2.07
276.795	-0.97
277.263	-7.37
277.731	-0.87
278.2	-3.47
278.668	-7.47
279.136	-3.37
279.604	-10.37
280.072	-5.07
280.54	-4.97
281.008	-8.07
281.477	3.53
281.945	-3.97
282.413	-4.27
282.881	-2.17
283.348	-6.47
283.816	-2.07
284.284	-1.87
284.752	6.83
285.22	-4.57
285.688	2.63
286.156	-2.47
286.623	-2.37
287.091	-7.47
287.559	-5.87
288.026	-1.47
288.494	-1.07
288.962	-11.17
289.429	-7.27
289.897	4.23
290.364	1.83
290.832	-2.67
291.3	-1.37
291.767	2.63
292.234	-0.37
292.702	-5.57
293.169	-5.17
293.637	-1.37
294.104	-4.57
294.571	-9.37
295.039	-9.77
295.506	-6.67
295.973	-7.37
296.44	-10.17
296.908	-5.47
297.375	-4.17
297.842	-3.07
298.309	-5.87
298.776	-7.57
299.243	-4.87
299.71	-8.47
300.177	-0.87
300.644	-6.77
301.111	-6.17
301.578	-5.67
302.045	-8.97
302.512	-3.37
302.979	-2.37
303.446	-5.07
303.913	-2.97
304.379	-2.27
304.846	1.33
305.313	-4.17
305.78	-0.77
306.246	-1.47
306.713	-1.37
307.18	-4.17
307.646	1.53
308.113	-3.37
308.579	-1.27
309.046	-4.17
309.512	-4.17
309.979	-14.27
310.445	-1.37
310.912	-4.07
311.378	1.23
311.845	5.93
312.311	-3.87
312.777	-6.77
313.244	-1.57
313.71	6.53
314.176	-1.27
314.642	-3.87
315.109	-4.27
315.575	-1.07
316.041	-0.27
316.507	-4.87
316.973	2.03
317.439	0.03
317.905	-0.77
318.371	-2.77
318.837	-2.37
319.303	-3.57
319.769	-0.67
320.235	0.53
320.701	2.03
321.167	-4.17
321.633	-8.97
322.099	-0.97
322.564	1.23
323.03	-3.37
323.496	0.13
323.962	-3.17
324.427	-4.27
324.893	2.53
325.359	-1.57
325.824	-1.47
326.29	-5.97
326.755	-6.87
327.221	-8.27
327.686	-10.77
328.152	2.33
328.617	-2.57
329.083	1.93
329.548	2.43
330.014	-0.27
330.479	-8.07
330.944	-5.27
331.41	0.53
331.875	4.03
332.34	-0.77
332.805	-5.97
333.271	-2.27
333.736	-13.57
334.201	1.43
334.666	1.23
335.131	-1.27
335.596	-5.77
336.061	-0.67
336.526	-5.07
336.991	-3.47
337.456	5.53
337.921	2.63
338.386	-3.57
338.851	0.93
339.316	2.13
339.781	-1.27
340.246	1.33
340.711	-3.57
341.175	-2.57
341.64	-9.57
342.105	-3.07
342.569	0.83
343.034	2.43
343.499	-4.57
343.963	-6.67
344.428	2.73
344.893	2.53
345.357	-8.67
345.822	-2.77
346.286	-1.27
346.751	2.03
347.215	-8.77
347.679	-11.07
348.144	-1.67
348.608	3.53
349.073	-7.37
349.537	-2.97
350.001	-1.27
350.465	0.33
350.93	-3.17
351.394	1.93
351.858	-9.97
352.322	2.13
352.786	-5.07
353.25	1.43
353.715	2.63
354.179	5.73
354.643	4.53
355.107	4.13
355.571	3.33
356.035	5.03
356.498	-2.37
356.962	-6.87
357.426	0.53
357.89	-4.87
358.354	0.93
358.818	8.63
359.281	-4.67
359.745	-7.27
360.209	-0.27
360.673	-4.97
361.136	-0.77
361.6	5.53
362.064	0.03
362.527	3.93
362.991	5.63
363.454	-10.97
363.918	-2.57
364.381	-9.77
364.845	-5.57
365.308	0.83
365.772	0.33
366.235	4.63
366.698	-5.77
367.162	0.43
367.625	-2.67
368.088	-5.27
368.552	-1.37
369.015	1.73
369.478	5.53
369.941	-1.07
370.404	-1.97
370.867	1.83
371.331	-4.77
371.794	-4.57
372.257	-6.47
372.72	-0.17
373.183	3.13
373.646	-10.57
374.109	-3.37
374.572	-1.97
375.035	-8.47
375.497	-0.97
375.96	-8.07
376.423	4.63
376.886	2.63
377.349	-0.87
377.811	-0.27
378.274	0.73
378.737	-4.57
379.199	-0.77
379.662	-9.97
380.125	1.73
380.587	-0.27
381.05	-6.87
381.512	1.13
381.975	8.03
382.437	3.33
382.9	-3.37
383.362	-0.67
383.825	-1.77
384.287	-3.77
384.75	1.23
385.212	0.13
385.674	1.53
386.136	7.73
386.599	2.43
387.061	4.43
387.523	-2.77
387.985	0.93
388.447	10.33
388.91	2.03
389.372	6.63
389.834	1.03
390.296	-0.07
390.758	2.63
391.22	1.63
391.682	1.83
392.144	5.83
392.606	4.13
393.068	2.03
393.529	8.03
393.991	-2.47
394.453	2.63
394.915	3.63
395.377	3.33
395.838	3.13
396.3	4.83
396.762	6.03
397.224	0.83
397.685	3.63
398.147	-4.27
398.608	1.23
399.07	-5.57
399.531	4.53
399.993	6.93
400.454	5.23
400.916	5.03
401.377	-3.77
401.839	5.13
402.3	-0.47
402.762	4.83
403.223	9.33
403.684	6.03
404.145	1.73
404.607	5.03
405.068	-0.47
405.529	-2.87
405.99	5.73
406.451	-2.47
406.913	9.03
407.374	-5.97
407.835	-1.87
408.296	-2.17
408.757	6.63
409.218	1.43
409.679	-0.07
410.14	7.63
410.601	9.33
411.062	7.43
411.522	3.93
411.983	2.93
412.444	1.83
412.905	4.53
413.366	4.43
413.826	7.03
414.287	9.23
414.748	16.63
415.208	12.23
415.669	8.13
416.13	13.83
416.59	11.73
417.051	16.43
417.511	11.63
417.972	8.53
418.432	12.83
418.893	16.43
419.353	15.23
419.814	10.83
420.274	11.43
420.734	6.93
421.195	8.43
421.655	0.83
422.115	5.13
422.576	4.83
423.036	4.53
423.496	16.33
423.956	3.63
424.416	11.83
424.876	14.63
425.336	5.83
425.797	10.63
426.257	12.33
426.717	-4.17
427.177	8.63
427.637	2.03
428.097	8.83
428.556	5.33
429.016	14.73
429.476	3.23
429.936	3.03
430.396	0.03
430.856	1.33
431.315	9.33
431.775	8.33
432.235	18.23
432.694	6.13
433.154	15.73
433.614	13.73
434.073	10.93
434.533	12.13
434.993	3.13
435.452	9.13
435.912	8.33
436.371	5.53
436.83	3.43
437.29	5.33
437.749	8.73
438.209	12.53
438.668	7.83
439.127	10.43
439.587	5.93
440.046	9.23
440.505	7.23
440.964	0.73
441.424	5.03
441.883	8.73
442.342	13.73
442.801	2.53
443.26	10.13
443.719	9.73
444.178	11.33
444.637	-2.37
445.096	3.83
445.555	7.13
446.014	5.13
446.473	13.23
446.932	6.73
447.391	2.33
447.849	9.93
448.308	2.63
448.767	-0.17
449.226	10.73
449.685	9.73
450.143	12.93
450.602	3.13
451.061	-0.57
451.519	6.63
451.978	8.53
452.436	6.13
452.895	5.93
453.353	10.93
453.812	7.93
454.27	11.13
454.729	12.03
455.187	11.43
455.646	10.23
456.104	8.73
456.562	11.13
457.021	6.03
457.479	10.33
457.937	11.83
458.395	10.43
458.854	1.43
459.312	13.33
459.77	6.33
460.228	2.33
460.686	-2.67
461.144	14.63
461.602	8.73
462.06	12.43
462.518	11.33
462.976	9.53
463.434	4.83
463.892	3.53
464.35	1.33
464.808	9.83
465.266	5.63
465.724	12.73
466.181	16.43
466.639	11.83
467.097	15.43
467.555	10.53
468.012	11.23
468.47	11.23
468.928	13.73
469.385	18.83
469.843	9.03
470.3	17.13
470.758	13.93
471.215	12.63
471.673	12.63
472.13	13.33
472.588	11.23
473.045	8.43
473.503	18.33
473.96	12.03
474.417	17.33
474.875	15.83
475.332	19.93
475.789	16.73
476.246	16.53
476.704	19.33
477.161	13.23
477.618	13.13
478.075	14.93
478.532	16.13
478.989	18.73
479.446	19.73
479.903	25.13
480.36	26.13
480.817	10.43
481.274	21.73
481.731	19.53
482.188	8.03
482.645	19.33
483.102	22.13
483.558	25.43
484.015	28.73
484.472	24.53
484.929	27.73
485.385	25.43
485.842	20.13
486.299	25.33
486.755	28.03
487.212	26.83
487.668	24.13
488.125	24.93
488.582	21.23
489.038	25.13
489.494	17.03
489.951	26.03
490.407	22.83
490.864	19.93
491.32	22.33
491.776	28.43
492.233	27.83
492.689	10.03
493.145	15.83
493.602	22.23
494.058	23.23
494.514	25.93
494.97	28.73
495.426	23.13
495.882	22.23
496.338	21.83
496.794	27.83
497.251	18.43
497.707	24.53
498.163	22.13
498.618	25.53
499.074	25.33
499.53	28.73
499.986	27.13
500.442	20.83
500.898	23.03
501.354	18.03
501.809	19.63
502.265	23.83
502.721	21.83
503.177	24.23
503.632	28.63
504.088	24.53
504.543	28.23
504.999	23.33
505.455	22.23
505.91	17.13
506.366	29.03
506.821	22.03
507.277	20.73
507.732	25.03
508.187	24.13
508.643	26.53
509.098	20.23
509.553	28.93
510.009	29.83
510.464	22.03
510.919	17.13
511.375	29.83
511.83	26.33
512.285	24.73
512.74	34.63
513.195	34.43
513.65	33.43
514.105	38.13
514.56	35.33
515.015	38.83
515.47	33.53
515.925	30.53
516.38	33.83
516.835	40.63
517.29	38.13
517.745	34.23
518.2	25.03
518.655	30.53
519.109	29.03
519.564	30.93
520.019	27.63
520.474	26.53
520.928	24.43
521.383	31.73
521.838	13.63
522.292	24.63
522.747	28.43
523.201	29.73
523.656	20.13
524.11	27.73
524.565	25.83
525.019	15.43
525.474	23.33
525.928	21.33
526.382	23.03
526.837	23.13
527.291	23.03
527.745	20.83
528.2	27.83
528.654	25.63
529.108	18.53
529.562	20.73
530.016	21.23
530.47	24.03
530.925	21.83
531.379	21.93
531.833	25.33
532.287	17.23
532.741	19.73
533.195	16.03
533.649	25.83
534.103	24.43
534.556	15.83
535.01	23.13
535.464	24.03
535.918	32.13
536.372	21.33
536.826	21.73
537.279	21.23
537.733	24.33
538.187	24.83
538.64	26.23
539.094	21.13
539.548	20.63
540.001	16.33
540.455	20.03
540.908	30.93
541.362	26.63
541.815	31.83
542.269	26.23
542.722	23.33
543.175	24.13
543.629	22.23
544.082	36.13
544.536	28.63
544.989	24.73
545.442	30.83
545.895	22.23
546.349	24.23
546.802	29.33
547.255	30.53
547.708	30.33
548.161	25.03
548.614	30.53
549.067	33.43
549.52	33.73
549.973	28.33
550.426	26.83
550.879	12.83
551.332	27.93
551.785	31.93
552.238	21.73
552.691	28.43
553.144	27.13
553.596	21.73
554.049	26.93
554.502	36.53
554.955	37.23
555.407	29.13
555.86	28.33
556.313	31.33
556.765	29.33
557.218	31.63
557.67	31.83
558.123	31.73
558.576	26.03
559.028	33.33
559.48	24.33
559.933	28.43
560.385	20.93
560.838	28.13
561.29	19.33
561.742	29.03
562.195	23.43
562.647	22.63
563.099	28.93
563.551	33.73
564.004	32.13
564.456	21.03
564.908	24.33
565.36	18.43
565.812	26.63
566.264	12.33
566.716	22.73
567.168	14.93
567.62	24.73
568.072	15.93
568.524	17.03
568.976	19.93
569.428	18.03
569.88	17.03
570.332	16.03
570.784	17.13
571.235	17.43
571.687	20.03
572.139	22.93
572.59	28.03
573.042	18.23
573.494	17.03
573.945	19.13
574.397	16.83
574.849	22.43
575.3	22.33
575.752	22.73
576.203	14.43
576.655	20.33
577.106	8.33
577.557	10.83
578.009	21.73
578.46	15.03
578.912	15.13
579.363	17.63
579.814	18.83
580.265	12.13
580.717	12.63
581.168	14.33
581.619	19.93
582.07	18.23
582.521	18.53
582.972	23.23
583.423	12.13
583.875	11.23
584.326	15.53
584.777	19.33
585.227	27.53
585.678	18.33
586.129	19.63
586.58	19.03
587.031	30.93
587.482	24.53
587.933	27.93
588.384	21.33
588.834	23.03
589.285	25.23
589.736	29.43
590.186	19.03
590.637	22.93
591.088	17.63
591.538	21.53
591.989	24.23
592.439	30.53
592.89	19.53
593.34	22.13
593.791	17.73
594.241	17.63
594.692	17.13
595.142	10.93
595.593	16.13
596.043	18.73
596.493	19.53
596.943	17.23
597.394	13.63
597.844	14.23
598.294	14.93
598.744	23.03
599.195	24.53
599.645	34.83
600.095	30.43
600.545	37.33
600.995	38.43
601.445	43.43
601.895	45.93
602.345	58.83
602.795	39.43
603.245	30.03
603.695	33.93
604.145	22.43
604.594	24.43
605.044	16.63
605.494	15.53
605.944	12.03
606.393	20.03
606.843	17.93
607.293	25.03
607.743	17.53
608.192	17.33
608.642	23.73
609.091	23.83
609.541	28.33
609.99	14.83
610.44	20.83
610.889	18.63
611.339	17.93
611.788	8.33
612.238	23.33
612.687	32.93
613.136	21.53
613.586	24.83
614.035	17.93
614.484	16.93
614.933	12.83
615.383	16.73
615.832	25.43
616.281	19.03
616.73	23.03
617.179	18.03
617.628	20.83
618.077	18.63
618.526	20.53
618.975	16.93
619.424	24.83
619.873	14.03
620.322	20.03
620.771	12.53
621.22	18.33
621.669	15.13
622.118	14.43
622.567	14.13
623.015	7.43
623.464	16.43
623.913	13.03
624.361	12.53
624.81	5.93
625.259	16.03
625.707	15.83
626.156	6.53
626.604	13.23
627.053	11.23
627.501	13.63
627.95	9.23
628.398	14.63
628.847	8.83
629.295	8.13
629.744	16.13
630.192	20.13
630.64	13.43
631.089	11.63
631.537	11.83
631.985	3.13
632.433	11.53
632.881	8.73
633.33	13.33
633.778	3.13
634.226	2.33
634.674	10.73
635.122	17.73
635.57	17.83
636.018	17.33
636.466	13.03
636.914	7.43
637.362	12.93
637.81	19.53
638.258	15.63
638.705	12.03
639.153	22.13
639.601	10.93
640.049	9.23
640.497	17.23
640.944	17.73
641.392	6.83
641.84	16.03
642.287	8.13
642.735	1.73
643.182	11.03
643.63	10.53
644.078	7.73
644.525	9.83
644.973	10.73
645.42	9.43
645.867	9.43
646.315	15.13
646.762	6.53
647.21	6.03
647.657	1.13
648.104	14.33
648.551	9.53
648.999	0.13
649.446	9.53
649.893	1.63
650.34	7.93
650.787	2.43
651.234	14.13
651.682	9.93
652.129	7.53
652.576	8.53
653.023	20.73
653.47	17.43
653.917	14.63
654.363	17.43
654.81	16.13
655.257	8.53
655.704	11.43
656.151	4.73
656.598	7.83
657.044	5.03
657.491	7.53
657.938	11.13
658.385	9.53
658.831	9.33
659.278	20.53
659.724	10.03
660.171	11.13
660.618	9.43
661.064	12.63
661.511	16.03
661.957	8.43
662.404	4.93
662.85	13.53
663.296	12.23
663.743	10.83
664.189	6.93
664.635	10.73
665.082	4.83
665.528	10.93
665.974	10.23
666.42	7.83
666.867	9.43
667.313	0.43
667.759	11.53
668.205	6.43
668.651	9.63
669.097	8.43
669.543	5.13
669.989	5.73
670.435	11.03
670.881	2.53
671.327	10.93
671.773	8.83
672.219	16.33
672.665	21.93
673.11	9.13
673.556	14.73
674.002	28.13
674.448	15.53
674.893	12.63
675.339	13.73
675.785	9.93
676.23	14.23
676.676	3.73
677.122	4.63
677.567	7.33
678.013	8.73
678.458	8.23
678.904	6.83
679.349	1.83
679.794	7.43
680.24	2.43
680.685	4.83
681.131	6.23
681.576	4.33
682.021	10.73
682.466	8.13
682.912	3.13
683.357	-0.97
683.802	13.53
684.247	8.13
684.692	9.53
685.137	6.03
685.583	20.43
686.028	16.13
686.473	15.23
686.918	3.73
687.363	16.23
687.807	8.23
688.252	3.83
688.697	15.13
689.142	5.13
689.587	2.03
690.032	1.63
690.477	8.53
690.921	1.93
691.366	7.63
691.811	2.93
692.255	9.23
692.7	18.83
693.145	9.63
693.589	26.83
694.034	51.83
694.478	68.53
694.923	97.73
695.367	136.93
695.812	55.83
696.256	16.93
696.701	4.83
697.145	5.23
697.59	2.23
698.034	-0.27
698.478	11.83
698.922	6.43
699.367	2.83
699.811	6.73
700.255	9.03
700.699	9.73
701.143	12.33
701.588	23.83
702.032	25.73
702.476	17.83
702.92	13.93
703.364	13.33
703.808	16.53
704.252	47.23
704.696	73.13
705.14	94.23
705.584	133.63
706.027	52.73
706.471	10.73
706.915	3.33
707.359	0.93
707.803	-4.47
708.246	-0.47
708.69	10.13
709.134	6.53
709.577	6.83
710.021	6.63
710.465	13.33
710.908	4.23
711.352	-1.77
711.795	9.13
712.239	8.13
712.682	0.93
713.126	14.23
713.569	16.43
714.012	14.03
714.456	-0.57
714.899	6.93
715.342	1.13
715.786	-0.97
716.229	-1.17
716.672	10.13
717.115	1.23
717.558	4.23
718.002	-1.57
718.445	4.03
718.888	16.83
719.331	11.63
719.774	9.83
720.217	8.23
720.66	6.43
721.103	3.53
721.546	1.33
721.989	5.53
722.432	-5.57
722.874	3.83
723.317	-4.97
723.76	-4.27
724.203	5.43
724.645	14.63
725.088	15.13
725.531	20.43
725.974	24.23
726.416	16.23
726.859	4.13
727.301	-3.57
727.744	5.13
728.187	0.63
728.629	3.73
729.071	1.43
729.514	8.53
729.956	4.83
730.399	4.43
730.841	6.53
731.283	0.73
731.726	4.33
732.168	6.93
732.61	3.83
733.053	2.23
733.495	7.13
733.937	6.23
734.379	13.53
734.821	9.33
735.263	13.53
735.705	31.93
736.148	80.83
736.59	145.63
737.032	169.43
737.474	140.53
737.916	28.63
738.357	7.83
738.799	7.83
739.241	-0.77
739.683	0.63
740.125	8.03
740.567	7.53
741.008	12.63
741.45	13.43
741.892	4.03
742.334	11.63
742.775	7.33
743.217	4.93
743.658	0.73
744.1	1.93
744.542	-1.87
744.983	6.33
745.425	0.43
745.866	4.33
746.307	3.13
746.749	2.53
747.19	15.03
747.632	14.43
748.073	31.13
748.514	101.63
748.956	159.73
749.397	200.63
749.838	168.33
750.279	177.33
750.72	75.13
751.162	22.33
751.603	5.43
752.044	5.73
752.485	-10.57
752.926	0.93
753.367	4.23
753.808	0.73
754.249	-1.87
754.69	0.73
755.131	-2.97
755.572	3.13
756.013	-4.87
756.453	3.43
756.894	-1.77
757.335	-4.37
757.776	-0.97
758.216	3.03
758.657	-0.57
759.098	-4.47
759.538	-5.47
759.979	-1.77
760.42	5.13
760.86	22.33
761.301	79.33
761.741	229.33
762.182	364.23
762.622	241.73
763.063	51.93
763.503	18.83
763.943	4.53
764.384	7.23
764.824	2.03
765.264	-0.67
765.705	5.63
766.145	-2.67
766.585	-3.97
767.025	-7.17
767.465	-5.07
767.906	4.43
768.346	7.23
768.786	-0.17
769.226	0.03
769.666	15.03
770.106	21.83
770.546	88.13
770.986	176.23
771.426	146.03
771.866	33.13
772.306	10.33
772.745	1.23
773.185	-4.07
773.625	4.63
774.065	-1.47
774.505	1.53
774.944	3.93
775.384	2.73
775.824	3.53
776.263	10.63
776.703	-0.47
777.142	-6.67
777.582	-1.37
778.021	-2.67
778.461	-3.27
778.9	-2.27
779.34	7.03
779.779	-0.57
780.219	-4.57
780.658	-2.17
781.097	-2.27
781.537	0.63
781.976	-4.37
782.415	-4.27
782.855	-7.47
783.294	-6.07
783.733	-8.07
784.172	-5.17
784.611	-10.37
785.05	1.63
785.489	-0.37
785.928	3.43
786.367	3.83
786.806	-4.07
787.245	-2.47
787.684	3.73
788.123	8.33
788.562	-1.47
789.001	-5.67
789.44	-4.57
789.879	2.13
790.317	-5.27
790.756	-3.37
791.195	-1.67
791.634	-1.57
792.072	6.13
792.511	12.73
792.95	48.13
793.388	118.63
793.827	106.53
794.265	23.73
794.704	4.13
795.142	8.53
795.581	11.73
796.019	-1.67
796.458	2.03
796.896	-4.77
797.334	1.83
797.773	8.63
798.211	9.33
798.649	22.33
799.087	57.73
799.526	88.53
799.964	116.13
800.402	126.33
800.84	36.53
801.278	7.93
801.716	-1.17
802.154	0.43
802.592	7.63
803.03	3.03
803.468	-9.57
803.906	-6.87
804.344	5.93
804.782	-0.47
805.22	-3.07
805.658	-5.57
806.096	6.53
806.533	0.73
806.971	2.23
807.409	-1.47
807.847	5.23
808.284	22.43
808.722	97.33
809.16	194.93
809.597	165.23
810.035	295.93
810.472	334.83
810.91	113.83
811.347	37.83
811.785	20.33
812.222	4.93
812.66	7.53
813.097	4.43
813.535	-4.07
813.972	-4.47
814.409	-3.07
814.846	-3.17
815.284	0.13
815.721	-3.67
816.158	1.93
816.595	-2.17
817.032	-0.17
817.47	3.03
817.907	6.93
818.344	-1.57
818.781	-4.57
819.218	-7.57
819.655	-3.17
820.092	2.33
820.529	-4.97
820.966	-4.47
821.403	1.63
821.839	-4.47
822.276	-5.07
822.713	-4.37
823.15	-3.87
823.587	4.03
824.023	7.63
824.46	9.93
824.897	49.83
825.333	86.53
825.77	28.63
826.206	7.53
826.643	3.63
827.08	-0.77
827.516	-3.97
827.953	-0.27
828.389	0.93
828.825	-1.27
829.262	-4.07
829.698	-4.77
830.135	-3.57
830.571	-1.17
831.007	-2.37
831.443	3.23
831.88	-11.77
832.316	-6.37
832.752	-0.47
833.188	0.43
833.624	-1.87
834.06	-1.97
834.497	-4.07
834.933	-1.27
835.369	3.03
835.805	-6.17
836.241	4.03
836.677	0.03
837.112	-4.87
837.548	-7.57
837.984	1.63
838.42	1.63
838.856	17.63
839.292	83.73
839.727	136.63
840.163	54.43
840.599	40.13
841.034	121.73
841.47	131.83
841.906	38.13
842.341	8.23
842.777	3.13
843.212	-1.57
843.648	2.33
844.083	0.93
844.519	1.33
844.954	-3.87
845.39	-11.67
845.825	-5.07
846.261	-2.37
846.696	2.43
847.131	-4.37
847.566	4.63
848.002	-6.97
848.437	3.53
848.872	-1.77
849.307	-8.97
849.742	-1.47
850.177	4.33
850.613	28.43
851.048	45.63
851.483	15.13
851.918	3.73
852.353	-7.87
852.788	-7.07
853.223	-4.27
853.657	1.73
854.092	5.73
854.527	-3.07
854.962	-7.87
855.397	-2.27
855.832	5.13
856.266	3.03
856.701	1.63
857.136	-6.17
857.57	-9.17
858.005	-2.87
858.44	3.73
858.874	-3.67
859.309	3.73
859.743	-9.87
860.178	-3.97
860.612	-6.37
861.047	-2.67
861.481	-7.17
861.915	-10.17
862.35	-2.07
862.784	-3.67
863.218	-3.17
863.653	-3.37
864.087	-0.97
864.521	5.03
864.955	-7.27
865.39	4.83
865.824	2.53
866.258	0.13
866.692	6.13
867.126	0.03
867.56	-0.77
867.994	-8.97
868.428	-7.07
868.862	-1.47
869.296	2.63
869.73	4.03
870.164	-0.77
870.598	-6.87
871.031	-7.67
871.465	-3.07
871.899	-1.87
872.333	-9.57
872.766	-4.37
873.2	-8.07
873.634	3.13
874.067	1.33
874.501	-3.17
874.935	1.53
875.368	-1.87
875.802	-0.17
876.235	-0.77
876.669	-3.87
877.102	-6.27
877.535	1.73
877.969	-7.87
878.402	0.63
878.836	-4.47
879.269	-1.47
879.702	0.53
880.135	-5.67
880.569	-4.17
881.002	-5.87
881.435	-2.97
881.868	-3.27
882.301	-0.67
882.734	-5.17
883.167	-2.07
883.601	-3.97
884.034	-1.87
884.467	-9.57
884.899	-6.27
885.332	-2.67
885.765	-8.77
886.198	-11.17
886.631	-1.57
887.064	-3.97
887.497	2.83
887.929	5.53
888.362	-5.77
888.795	-13.87
889.228	-3.67
889.66	-0.77
890.093	-0.97
890.526	-4.07
890.958	-2.07
891.391	-6.37
891.823	2.53
892.256	-9.47
892.688	-0.37
893.121	-5.57
893.553	-3.17
893.985	-1.27
894.418	-4.77
894.85	-8.27
895.282	-1.77
895.715	3.73
896.147	1.53
896.579	-0.97
897.011	-7.27
897.444	-1.07
897.876	-9.67
898.308	-4.57
898.74	-2.97
899.172	-6.97
899.604	1.53
900.036	2.43
900.468	-9.37
900.9	-12.17
901.332	-1.97
901.764	-6.67
902.196	2.63
902.628	-0.77
903.06	-8.17
903.491	-0.47
903.923	-11.37
904.355	-1.47
904.787	-1.17
905.218	-6.17
905.65	-10.57
906.082	-10.77
906.513	-8.47
906.945	-7.97
907.376	-3.77
907.808	-0.87
908.239	1.73
908.671	-6.17
909.102	-6.67
909.534	-4.27
909.965	1.53
910.397	5.63
910.828	12.03
911.259	27.73
911.691	7.43
912.122	2.93
912.553	-5.37
912.984	-2.07
913.415	-0.67
913.847	4.23
914.278	-11.37
914.709	-1.07
915.14	-4.07
915.571	1.33
916.002	-7.57
916.433	1.13
916.864	-1.87
917.295	-1.77
917.726	-5.17
918.157	-7.97
918.587	-1.77
919.018	-8.37
919.449	-3.77
919.88	-7.87
920.311	-2.17
920.741	-3.07
921.172	3.43
921.603	3.33
922.033	-2.27
922.464	5.73
922.895	0.53
923.325	-3.17
923.756	-5.07
924.186	-10.47
924.617	-3.27
925.047	-11.87
925.478	-9.57
925.908	-4.07
926.338	-8.87
926.769	-2.27
927.199	3.33
927.629	-9.97
928.06	-2.07
928.49	-2.37
928.92	-2.27
929.35	-2.47
929.78	-0.97
930.21	0.43
930.641	-0.77
931.071	0.93
931.501	-1.37
931.931	-3.17
932.361	-3.87
932.791	-5.67
933.221	-5.57
933.651	-3.17
934.08	-2.67
934.51	5.73
934.94	-3.27
935.37	-3.57
935.8	3.33
936.229	1.23
936.659	0.33
937.089	-5.87
937.519	2.53
937.948	2.83
938.378	-3.17
938.807	-1.17
939.237	-0.47
939.666	-4.77
940.096	-9.77
940.525	-7.17
940.955	0.83
941.384	-3.47
941.814	-13.57
942.243	-4.27
942.672	1.03
943.102	-3.77
943.531	0.03
943.96	1.23
944.39	-1.67
944.819	-7.07
945.248	-6.37
945.677	-5.17
946.106	5.23
946.535	0.53
946.964	0.23
947.393	-1.17
947.822	-5.47
948.251	-9.97
948.68	-4.87
949.109	-2.27
949.538	-0.27
949.967	-6.67
950.396	1.13
950.825	-3.07
951.254	-4.27
951.682	-12.17
952.111	-1.07
952.54	2.73
952.969	-12.57
953.397	-4.37
953.826	-6.87
954.254	-10.67
954.683	-2.37
955.112	-10.17
955.54	-7.37
955.969	-7.67
956.397	-0.37
956.826	-3.07
957.254	-2.27
957.682	-6.07
958.111	3.33
958.539	-2.87
958.967	-3.97
959.396	-3.87
959.824	0.63
960.252	-3.67
960.68	-9.57
961.109	-5.67
961.537	-7.97
961.965	-3.17
962.393	-5.57
962.821	-8.97
963.249	-4.37
963.677	-1.07
964.105	-11.77
964.533	-3.37
964.961	1.63
965.389	-0.57
965.817	-5.97
966.245	-2.67
966.672	-7.67
967.1	-8.77
967.528	-5.37
967.956	-9.87
968.383	1.83
968.811	-12.07
969.239	-4.87
969.666	-1.47
970.094	-3.47
970.522	0.23
970.949	-4.27
971.377	-4.97
971.804	-4.37
972.232	-11.27
972.659	-5.57
973.087	-7.27
973.514	-8.47
973.941	-8.77
974.369	2.13
974.796	-3.27
975.223	-8.47
975.651	-6.97
976.078	-2.47
976.505	0.03
976.932	-6.27
977.359	-3.77
977.786	-2.47
978.214	-12.07
978.641	-6.17
979.068	-3.77
979.495	-14.07
979.922	-4.87
980.349	-8.87
980.776	2.13
981.202	-4.97
981.629	-1.67
982.056	-3.37
982.483	-8.07
982.91	-1.67
983.337	-6.87
983.763	-3.97
984.19	-8.87
984.617	-11.37
985.043	-7.07
985.47	-5.27
985.897	-11.77
986.323	-14.67
986.75	3.03
987.176	-5.17
987.603	-5.57
988.029	-0.07
988.456	-1.87
988.882	-3.87
989.308	-10.47
989.735	-10.07
990.161	-1.07
990.587	-8.17
991.014	-1.57
991.44	3.63
991.866	-4.07
992.292	-12.37
992.719	-6.27
993.145	-0.57
993.571	-8.27
993.997	-7.17
994.423	-1.67
994.849	-9.47
995.275	4.43
995.701	-0.97
996.127	-2.97
996.553	-5.07
996.979	-3.67
997.405	-3.57
997.83	-9.77
998.256	-9.97
998.682	-10.87
999.108	-8.97
999.534	-5.07
999.959	-2.47
1000.385	-8.67
1000.811	0.93
1001.236	-8.67
1001.662	-11.87
1002.087	-7.87
1002.513	-0.47
1002.938	-2.37
1003.364	-9.47
1003.789	-8.07
1004.215	-6.77
1004.64	-1.07
1005.066	-1.77
1005.491	-6.37
1005.916	-5.07
1006.342	-12.17
1006.767	-2.97
1007.192	2.93
1007.617	-4.17
1008.042	-7.57
1008.468	-8.27
1008.893	-5.17
1009.318	-4.97
1009.743	-11.57
1010.168	-5.47
1010.593	-7.87
1011.018	-16.77
1011.443	-3.07
1011.868	-2.07
1012.293	-5.57
1012.718	-5.47
1013.143	0.43
1013.567	-0.07
1013.992	-6.87
1014.417	-10.87
1014.842	-0.87
1015.267	-0.97
1015.691	-2.57
1016.116	1.63
1016.541	-6.97
1016.965	-7.17
1017.39	5.13
1017.814	-2.67
1018.239	-3.87
1018.663	-4.17
1019.088	-7.07
1019.512	-5.67
1019.937	-5.67
1020.361	-3.67
1020.785	-11.67
1021.21	-7.27
1021.634	-4.87
1022.058	2.43
1022.483	4.63
1022.907	-5.87
1023.331	-9.07
1023.755	-3.37
1024.179	-7.07
1024.604	-10.67
1025.028	-10.07
1025.452	-2.07
1025.876	-4.37
1026.3	-3.07
1026.724	-12.37
1027.148	-5.97
1027.572	-9.17
1027.996	-4.17
1028.42	-3.07
1028.843	-2.87
1029.267	-2.17
1029.691	-5.67
1030.115	-2.67
1030.539	-7.77
1030.962	-9.17
1031.386	-12.97
1031.81	-7.37
1032.233	-0.17
1032.657	-6.37
1033.08	-3.17
1033.504	-3.57
1033.927	-9.17
1034.351	-2.27
1034.774	-6.37
1035.198	-2.37
1035.621	-7.17
1036.045	-7.37
1036.468	3.03
1036.891	-14.57
1037.315	-11.97
1037.738	-12.57
1038.161	0.93
1038.584	-10.37
1039.008	-3.17
1039.431	-4.37
1039.854	-0.17
1040.277	-7.67
1040.7	-9.77
1041.123	0.63
1041.546	-2.57
1041.969	-7.47
1042.392	-7.67
1042.815	1.03
1043.238	0.33
1043.661	2.73
1044.084	-5.27
1044.507	-8.77
1044.93	-5.07
1045.352	-3.37
1045.775	-3.37
1046.198	-7.87
1046.621	2.93
1047.043	-4.27
1047.466	3.93
1047.889	-7.47
1048.311	-9.07
1048.734	-2.57
1049.156	-4.27
1049.579	-1.77
1050.001	-9.27
1050.424	-7.17
1050.846	-0.87
1051.269	-1.47
1051.691	-6.37
1052.113	-3.17
1052.536	1.93
1052.958	-2.97
1053.38	-4.77
1053.802	-9.57
1054.225	-1.97
1054.647	-8.97
1055.069	-6.17
1055.491	2.73
1055.913	-10.27
1056.335	-0.97
1056.757	-3.37
1057.179	-8.17
1057.601	-10.87
1058.023	-4.87
1058.445	1.03
1058.867	0.93
1059.289	-2.57
1059.711	-7.07
1060.133	-8.67
1060.555	-3.77
1060.976	-6.47
1061.398	-10.37
1061.82	-12.07
1062.241	-7.87
1062.663	-6.37
1063.085	-8.87
1063.506	-7.17
1063.928	-5.67
1064.35	-4.47
1064.771	-14.57
1065.193	-4.57
1065.614	-9.27
1066.035	-5.17
1066.457	-13.67
1066.878	0.03
1067.3	-6.57
1067.721	-7.47
1068.142	-8.07
1068.564	-0.37
1068.985	-6.57
1069.406	-4.97
1069.827	-4.57
1070.248	-9.17
1070.67	-10.17
1071.091	-9.37
1071.512	-4.87
1071.933	-6.67
1072.354	-11.17
1072.775	-4.07
1073.196	-8.67
1073.617	-1.67
1074.038	-10.07
1074.459	-7.67
1074.88	-1.67
1075.3	1.03
1075.721	-8.47
1076.142	1.63
1076.563	-8.77
1076.983	-10.37
1077.404	-5.67
1077.825	-8.57
1078.246	-6.77
1078.666	-9.37
1079.087	-6.17
1079.507	-1.87
1079.928	-2.87
1080.348	-4.77
1080.769	-6.17
1081.189	1.03
1081.61	-8.67
1082.03	-9.37
1082.451	-10.37
1082.871	-1.17
1083.291	-9.47
1083.711	-3.97
1084.132	-2.57
1084.552	-6.17
1084.972	-4.17
1085.392	-9.07
1085.813	-9.77
1086.233	-10.27
1086.653	-5.07
1087.073	-4.07
1087.493	-6.47
1087.913	-6.07
1088.333	-12.47
1088.753	-10.47
1089.173	1.53
1089.593	-1.77
1090.013	0.33
1090.433	0.33
1090.852	-0.97
1091.272	3.33
1091.692	-1.27
1092.112	-3.87
1092.531	-10.97
1092.951	-11.57
1093.371	-2.87
1093.79	0.23
1094.21	-6.47
1094.63	-2.17
1095.049	-7.37
1095.469	-1.77
1095.888	-2.47
1096.308	-1.97
1096.727	1.13
1097.146	-12.07
1097.566	4.63
1097.985	-5.27
1098.405	-0.27
1098.824	-4.17
1099.243	-8.27
1099.662	-5.27
1100.082	-1.07
1100.501	-0.57
1100.92	-8.47
1101.339	-2.37
1101.758	-8.37
