Data from 20171114-ORNL-Ar_H_NY_Subt18_08-05-24-774.txt Node
Date: Tue Nov 14 08:05:24 EST 2017
User: Ender
Spectrometer: HR+D1039
Trigger mode: 0
Integration Time (sec): 2.730000E-2
Scans to average: 10
Electric dark correction enabled: true
Nonlinearity correction enabled: false
Boxcar width: 0
XAxis mode: Wavelengths
Number of Pixels in Spectrum: 2048
>>>>>Begin Spectral Data<<<<<
187.836	-4.45
188.309	-4.45
188.782	-4.45
189.255	-1.95
189.728	-0.95
190.201	1.95
190.674	2.75
191.147	2.25
191.619	-0.85
192.092	-0.55
192.565	0.25
193.038	-1.95
193.511	-2.65
193.984	1.65
194.456	-1.45
194.929	2.15
195.402	0.05
195.874	3.75
196.347	2.05
196.82	-6.05
197.292	4.85
197.765	-2.05
198.237	-7.35
198.71	1.05
199.182	0.85
199.655	6.85
200.127	1.05
200.6	-3.35
201.072	-2.15
201.544	-0.05
202.017	3.95
202.489	4.35
202.961	0.55
203.433	-7.55
203.906	-3.25
204.378	-5.85
204.85	-3.25
205.322	-5.15
205.794	-4.65
206.266	-1.15
206.739	-10.55
207.211	-0.25
207.683	-5.85
208.155	-9.45
208.627	-2.95
209.099	-0.95
209.57	-9.05
210.042	-3.45
210.514	-0.55
210.986	-1.15
211.458	-12.25
211.93	-2.65
212.402	7.65
212.873	-4.25
213.345	-6.05
213.817	-8.25
214.288	-3.45
214.76	-5.35
215.232	-3.05
215.703	-2.35
216.175	-2.05
216.646	-7.95
217.118	-7.55
217.589	-2.65
218.061	-1.75
218.532	-4.65
219.004	-3.35
219.475	3.65
219.946	-3.35
220.418	-3.45
220.889	4.45
221.36	-0.55
221.832	-0.85
222.303	-7.65
222.774	0.45
223.245	-6.75
223.717	-4.15
224.188	-2.75
224.659	-12.75
225.13	-2.45
225.601	-3.65
226.072	-2.05
226.543	2.05
227.014	-8.25
227.485	-5.15
227.956	-4.35
228.427	1.25
228.898	2.15
229.369	4.95
229.839	-6.25
230.31	-2.25
230.781	1.05
231.252	-0.55
231.722	-1.65
232.193	1.45
232.664	2.15
233.135	1.75
233.605	6.75
234.076	-3.45
234.546	-1.45
235.017	2.35
235.487	2.95
235.958	-3.15
236.428	-1.85
236.899	3.35
237.369	4.95
237.84	5.05
238.31	9.55
238.78	3.65
239.251	-7.25
239.721	2.35
240.191	10.15
240.662	0.15
241.132	3.95
241.602	1.75
242.072	0.85
242.542	8.35
243.013	-2.35
243.483	5.55
243.953	1.35
244.423	-1.45
244.893	-10.95
245.363	8.35
245.833	3.55
246.303	2.55
246.773	5.65
247.243	5.65
247.712	6.55
248.182	6.75
248.652	6.35
249.122	-1.05
249.592	14.15
250.061	24.65
250.531	40.55
251.001	15.15
251.471	22.05
251.94	20.25
252.41	12.55
252.879	5.35
253.349	17.95
253.818	13.05
254.288	5.15
254.757	10.45
255.227	10.45
255.696	4.65
256.166	10.05
256.635	13.15
257.105	14.85
257.574	12.15
258.043	10.55
258.513	13.55
258.982	18.15
259.451	8.25
259.92	18.95
260.389	16.15
260.859	23.15
261.328	13.85
261.797	20.55
262.266	10.15
262.735	13.25
263.204	5.55
263.673	-1.85
264.142	10.05
264.611	0.05
265.08	1.75
265.549	-0.05
266.018	5.15
266.487	1.05
266.955	-4.35
267.424	0.65
267.893	7.25
268.362	5.75
268.83	2.85
269.299	15.05
269.768	6.45
270.236	6.95
270.705	8.55
271.174	10.45
271.642	12.65
272.111	14.75
272.579	14.35
273.048	29.45
273.516	36.05
273.985	34.05
274.453	28.75
274.922	18.75
275.39	13.85
275.858	9.25
276.327	15.95
276.795	20.25
277.263	11.55
277.731	37.75
278.2	62.35
278.668	67.55
279.136	52.85
279.604	13.85
280.072	24.05
280.54	16.55
281.008	12.25
281.477	16.35
281.945	12.95
282.413	20.15
282.881	14.85
283.348	12.05
283.816	14.05
284.284	16.55
284.752	20.45
285.22	22.05
285.688	16.35
286.156	19.45
286.623	46.15
287.091	62.15
287.559	27.85
288.026	23.65
288.494	19.95
288.962	7.65
289.429	13.45
289.897	22.95
290.364	19.15
290.832	15.45
291.3	16.65
291.767	17.55
292.234	21.15
292.702	22.35
293.169	21.05
293.637	22.35
294.104	22.05
294.571	15.55
295.039	14.35
295.506	19.05
295.973	17.75
296.44	20.75
296.908	20.05
297.375	18.05
297.842	17.75
298.309	14.35
298.776	14.15
299.243	27.95
299.71	12.65
300.177	23.05
300.644	24.65
301.111	27.75
301.578	30.25
302.045	17.55
302.512	28.35
302.979	23.85
303.446	23.65
303.913	13.85
304.379	18.75
304.846	26.35
305.313	22.75
305.78	23.75
306.246	30.85
306.713	33.85
307.18	30.45
307.646	28.55
308.113	33.55
308.579	28.35
309.046	26.85
309.512	24.05
309.979	21.65
310.445	36.15
310.912	31.75
311.378	39.45
311.845	35.85
312.311	35.75
312.777	33.95
313.244	32.25
313.71	42.85
314.176	38.45
314.642	32.65
315.109	38.35
315.575	37.55
316.041	39.75
316.507	40.45
316.973	43.65
317.439	34.35
317.905	41.75
318.371	42.85
318.837	36.05
319.303	33.85
319.769	38.35
320.235	41.35
320.701	38.95
321.167	37.65
321.633	39.85
322.099	44.25
322.564	42.55
323.03	41.95
323.496	39.35
323.962	43.75
324.427	42.25
324.893	49.25
325.359	39.85
325.824	37.85
326.29	36.35
326.755	46.25
327.221	43.15
327.686	41.75
328.152	53.05
328.617	47.05
329.083	49.25
329.548	52.45
330.014	47.95
330.479	46.15
330.944	45.35
331.41	51.55
331.875	48.55
332.34	47.35
332.805	45.45
333.271	54.75
333.736	50.95
334.201	55.65
334.666	53.85
335.131	58.25
335.596	55.95
336.061	52.95
336.526	47.65
336.991	47.85
337.456	65.25
337.921	51.25
338.386	49.85
338.851	44.65
339.316	47.45
339.781	52.15
340.246	55.05
340.711	50.15
341.175	50.35
341.64	48.15
342.105	51.05
342.569	59.55
343.034	67.05
343.499	60.65
343.963	53.85
344.428	63.05
344.893	59.65
345.357	64.85
345.822	59.05
346.286	70.85
346.751	79.15
347.215	74.35
347.679	75.25
348.144	101.15
348.608	85.45
349.073	77.95
349.537	77.85
350.001	79.25
350.465	89.55
350.93	91.35
351.394	83.55
351.858	74.95
352.322	87.75
352.786	87.85
353.25	99.15
353.715	112.65
354.179	107.25
354.643	122.95
355.107	127.05
355.571	112.25
356.035	109.55
356.498	122.45
356.962	126.55
357.426	138.15
357.89	119.55
358.354	93.65
358.818	87.55
359.281	84.15
359.745	79.45
360.209	73.95
360.673	71.45
361.136	81.65
361.6	88.95
362.064	83.05
362.527	87.85
362.991	93.25
363.454	84.85
363.918	79.45
364.381	76.45
364.845	82.15
365.308	91.55
365.772	83.95
366.235	90.15
366.698	89.55
367.162	87.15
367.625	87.65
368.088	93.95
368.552	85.45
369.015	94.15
369.478	96.35
369.941	101.45
370.404	98.15
370.867	103.15
371.331	111.45
371.794	116.95
372.257	111.85
372.72	117.55
373.183	109.45
373.646	108.65
374.109	98.15
374.572	109.25
375.035	107.85
375.497	109.25
375.96	101.75
376.423	106.35
376.886	108.05
377.349	109.05
377.811	102.95
378.274	105.35
378.737	110.25
379.199	121.15
379.662	113.95
380.125	120.95
380.587	118.75
381.05	124.35
381.512	135.85
381.975	132.95
382.437	134.15
382.9	131.85
383.362	132.95
383.825	143.35
384.287	150.45
384.75	137.45
385.212	144.45
385.674	138.05
386.136	136.55
386.599	131.35
387.061	133.25
387.523	133.25
387.985	135.95
388.447	140.75
388.91	141.55
389.372	166.15
389.834	151.55
390.296	141.35
390.758	156.75
391.22	165.45
391.682	204.85
392.144	299.65
392.606	232.95
393.068	173.55
393.529	169.85
393.991	152.45
394.453	147.85
394.915	157.05
395.377	194.55
395.838	213.05
396.3	158.55
396.762	143.15
397.224	138.85
397.685	136.95
398.147	134.95
398.608	132.55
399.07	130.95
399.531	139.15
399.993	141.35
400.454	158.75
400.916	149.15
401.377	147.75
401.839	146.65
402.3	152.25
402.762	164.15
403.223	184.65
403.684	175.55
404.145	161.75
404.607	154.65
405.068	169.65
405.529	167.25
405.99	188.25
406.451	175.85
406.913	175.25
407.374	160.75
407.835	159.15
408.296	169.85
408.757	174.55
409.218	195.55
409.679	176.95
410.14	177.35
410.601	178.75
411.062	183.05
411.522	188.15
411.983	192.45
412.444	173.95
412.905	177.25
413.366	182.25
413.826	195.75
414.287	212.35
414.748	253.85
415.208	239.85
415.669	208.25
416.13	210.35
416.59	206.15
417.051	213.45
417.511	215.25
417.972	237.45
418.432	245.85
418.893	272.95
419.353	248.35
419.814	198.45
420.274	181.95
420.734	178.35
421.195	198.65
421.655	201.75
422.115	194.75
422.576	193.65
423.036	194.15
423.496	209.95
423.956	215.35
424.416	230.75
424.876	263.35
425.336	262.05
425.797	258.65
426.257	252.75
426.717	248.75
427.177	228.85
427.637	215.75
428.097	228.15
428.556	245.25
429.016	273.05
429.476	269.45
429.936	275.55
430.396	272.35
430.856	284.75
431.315	313.95
431.775	347.45
432.235	373.85
432.694	350.75
433.154	363.35
433.614	394.65
434.073	336.45
434.533	281.75
434.993	266.25
435.452	283.15
435.912	292.85
436.371	284.75
436.83	280.25
437.29	268.75
437.749	247.05
438.209	248.25
438.668	273.75
439.127	287.45
439.587	266.75
440.046	253.35
440.505	257.85
440.964	273.45
441.424	321.75
441.883	307.35
442.342	255.25
442.801	222.25
443.26	219.65
443.719	220.05
444.178	215.45
444.637	208.15
445.096	222.85
445.555	224.05
446.014	224.95
446.473	228.15
446.932	224.25
447.391	220.65
447.849	226.15
448.308	214.85
448.767	213.35
449.226	226.35
449.685	234.45
450.143	238.95
450.602	234.45
451.061	224.75
451.519	236.05
451.978	230.95
452.436	227.05
452.895	245.15
453.353	253.75
453.812	244.45
454.27	237.65
454.729	246.55
455.187	240.95
455.646	244.85
456.104	254.55
456.562	259.35
457.021	269.35
457.479	253.05
457.937	272.65
458.395	259.15
458.854	248.25
459.312	257.15
459.77	273.75
460.228	247.25
460.686	235.25
461.144	242.35
461.602	237.75
462.06	240.25
462.518	247.45
462.976	256.75
463.434	263.85
463.892	259.35
464.35	277.45
464.808	283.55
465.266	264.75
465.724	264.25
466.181	275.85
466.639	273.85
467.097	289.65
467.555	296.95
468.012	305.85
468.47	311.35
468.928	333.65
469.385	338.85
469.843	349.25
470.3	354.25
470.758	357.25
471.215	378.85
471.673	410.75
472.13	411.05
472.588	415.05
473.045	375.15
473.503	372.95
473.96	396.25
474.417	393.15
474.875	437.65
475.332	466.75
475.789	450.65
476.246	464.05
476.704	484.65
477.161	500.05
477.618	514.65
478.075	558.15
478.532	610.75
478.989	675.35
479.446	802.15
479.903	778.75
480.36	810.45
480.817	872.35
481.274	969.45
481.731	1074.45
482.188	1165.15
482.645	1298.65
483.102	1401.75
483.558	1551.85
484.015	1594.35
484.472	1575.45
484.929	1532.35
485.385	1490.25
485.842	1427.65
486.299	1362.95
486.755	1297.25
487.212	1101.85
487.668	921.45
488.125	851.35
488.582	776.25
489.038	742.65
489.494	707.15
489.951	676.35
490.407	668.95
490.864	641.45
491.32	640.75
491.776	641.05
492.233	644.65
492.689	598.55
493.145	602.65
493.602	596.25
494.058	621.35
494.514	617.65
494.97	636.45
495.426	650.75
495.882	623.65
496.338	602.75
496.794	625.75
497.251	614.55
497.707	635.85
498.163	634.95
498.618	645.15
499.074	643.05
499.53	679.15
499.986	679.85
500.442	658.95
500.898	623.55
501.354	620.85
501.809	635.65
502.265	639.15
502.721	656.95
503.177	668.15
503.632	655.45
504.088	670.05
504.543	701.95
504.999	705.65
505.455	661.85
505.91	636.25
506.366	630.95
506.821	622.45
507.277	624.75
507.732	621.25
508.187	630.75
508.643	631.35
509.098	632.55
509.553	654.25
510.009	657.85
510.464	658.45
510.919	687.25
511.375	694.25
511.83	701.85
512.285	719.45
512.74	757.25
513.195	772.95
513.65	763.05
514.105	768.45
514.56	769.65
515.015	785.75
515.47	803.45
515.925	787.95
516.38	783.45
516.835	794.65
517.29	785.65
517.745	767.55
518.2	753.35
518.655	744.35
519.109	746.85
519.564	736.95
520.019	724.95
520.474	716.65
520.928	719.45
521.383	711.85
521.838	716.05
522.292	704.75
522.747	709.25
523.201	701.05
523.656	682.75
524.11	692.15
524.565	681.15
525.019	684.45
525.474	698.45
525.928	691.35
526.382	685.85
526.837	689.95
527.291	706.85
527.745	693.25
528.2	691.85
528.654	681.85
529.108	676.75
529.562	684.95
530.016	688.25
530.47	679.15
530.925	690.25
531.379	695.75
531.833	699.35
532.287	698.75
532.741	695.65
533.195	695.35
533.649	712.05
534.103	714.45
534.556	697.95
535.01	712.25
535.464	709.45
535.918	718.15
536.372	716.55
536.826	715.15
537.279	705.15
537.733	709.15
538.187	704.85
538.64	706.35
539.094	714.95
539.548	720.95
540.001	722.65
540.455	713.35
540.908	719.05
541.362	728.35
541.815	745.35
542.269	751.05
542.722	759.65
543.175	755.35
543.629	768.25
544.082	786.95
544.536	782.65
544.989	775.25
545.442	782.15
545.895	786.45
546.349	789.25
546.802	771.15
547.255	793.05
547.708	795.65
548.161	808.25
548.614	807.25
549.067	809.95
549.52	806.95
549.973	806.25
550.426	793.35
550.879	789.65
551.332	790.85
551.785	788.65
552.238	794.45
552.691	813.85
553.144	820.55
553.596	844.85
554.049	857.45
554.502	891.95
554.955	903.25
555.407	901.65
555.86	890.25
556.313	883.95
556.765	879.45
557.218	878.55
557.67	881.35
558.123	869.65
558.576	857.55
559.028	862.05
559.48	874.05
559.933	853.75
560.385	825.35
560.838	799.25
561.29	776.45
561.742	769.15
562.195	749.95
562.647	746.35
563.099	761.35
563.551	765.65
564.004	773.55
564.456	760.45
564.908	756.05
565.36	736.35
565.812	722.25
566.264	715.25
566.716	716.35
567.168	705.55
567.62	710.65
568.072	683.85
568.524	683.75
568.976	672.85
569.428	659.65
569.88	664.25
570.332	668.05
570.784	671.35
571.235	663.05
571.687	680.85
572.139	696.05
572.59	693.85
573.042	703.05
573.494	694.55
573.945	687.95
574.397	668.25
574.849	684.35
575.3	682.45
575.752	666.95
576.203	660.95
576.655	671.95
577.106	654.15
577.557	650.85
578.009	659.85
578.46	653.45
578.912	649.05
579.363	662.95
579.814	649.55
580.265	637.65
580.717	658.15
581.168	658.35
581.619	668.95
582.07	665.55
582.521	654.55
582.972	658.15
583.423	662.75
583.875	662.55
584.326	684.45
584.777	733.15
585.227	803.85
585.678	899.35
586.129	988.95
586.58	1064.95
587.031	1136.65
587.482	1292.55
587.933	1485.85
588.384	1287.55
588.834	961.15
589.285	795.35
589.736	760.75
590.186	755.85
590.637	749.65
591.088	722.95
591.538	717.55
591.989	718.15
592.439	700.55
592.89	702.75
593.34	687.05
593.791	700.55
594.241	689.95
594.692	691.65
595.142	681.85
595.593	672.05
596.043	690.65
596.493	687.65
596.943	696.55
597.394	702.65
597.844	693.15
598.294	710.25
598.744	725.95
599.195	750.45
599.645	792.45
600.095	830.25
600.545	879.05
600.995	939.75
601.445	1001.55
601.895	1052.25
602.345	1102.35
602.795	1087.05
603.245	1036.55
603.695	979.45
604.145	922.35
604.594	886.75
605.044	825.25
605.494	771.95
605.944	737.35
606.393	722.75
606.843	706.35
607.293	710.05
607.743	712.15
608.192	717.85
608.642	738.15
609.091	742.45
609.541	753.85
609.99	749.15
610.44	744.45
610.889	701.65
611.339	682.05
611.788	674.65
612.238	683.35
612.687	687.45
613.136	694.85
613.586	714.25
614.035	709.65
614.484	725.65
614.933	730.25
615.383	727.45
615.832	714.25
616.281	697.25
616.73	648.35
617.179	639.55
617.628	632.05
618.077	609.85
618.526	591.45
618.975	588.65
619.424	595.85
619.873	588.95
620.322	588.55
620.771	582.35
621.22	585.85
621.669	567.85
622.118	558.15
622.567	558.25
623.015	555.75
623.464	544.75
623.913	536.75
624.361	532.95
624.81	533.95
625.259	536.85
625.707	534.55
626.156	529.75
626.604	546.75
627.053	535.75
627.501	532.75
627.95	535.85
628.398	558.95
628.847	547.25
629.295	549.85
629.744	545.55
630.192	552.15
630.64	543.45
631.089	536.85
631.537	560.15
631.985	557.85
632.433	573.95
632.881	584.85
633.33	631.05
633.778	621.15
634.226	548.35
634.674	548.55
635.122	559.25
635.57	569.45
636.018	592.65
636.466	558.65
636.914	538.95
637.362	543.15
637.81	551.15
638.258	557.55
638.705	559.45
639.153	576.95
639.601	591.65
640.049	607.75
640.497	640.55
640.944	660.75
641.392	615.75
641.84	599.45
642.287	555.45
642.735	541.25
643.182	537.75
643.63	548.95
644.078	548.15
644.525	570.85
644.973	571.75
645.42	573.85
645.867	597.25
646.315	620.15
646.762	641.85
647.21	672.15
647.657	672.15
648.104	727.45
648.551	739.45
648.999	802.65
649.446	878.35
649.893	965.95
650.34	1103.85
650.787	1322.65
651.234	1652.55
651.682	2133.85
652.129	2924.25
652.576	4209.35
653.023	6231.35
653.47	8591.05
653.917	10814.05
654.363	12556.35
654.81	13961.15
655.257	13260.35
655.704	8642.75
656.151	5105.45
656.598	3290.55
657.044	2343.55
657.491	1798.15
657.938	1428.75
658.385	1198.85
658.831	1037.65
659.278	926.65
659.724	816.05
660.171	763.65
660.618	692.55
661.064	655.85
661.511	634.05
661.957	621.35
662.404	611.25
662.85	621.35
663.296	586.45
663.743	531.75
664.189	511.65
664.635	499.85
665.082	497.25
665.528	496.75
665.974	492.95
666.42	484.65
666.867	473.85
667.313	456.15
667.759	461.55
668.205	452.95
668.651	455.75
669.097	464.25
669.543	473.65
669.989	449.05
670.435	429.75
670.881	412.05
671.327	429.95
671.773	440.75
672.219	459.55
672.665	511.45
673.11	550.05
673.556	589.85
674.002	633.55
674.448	616.65
674.893	523.35
675.339	452.15
675.785	419.75
676.23	392.65
676.676	363.65
677.122	356.15
677.567	352.85
678.013	344.05
678.458	341.65
678.904	339.55
679.349	325.75
679.794	333.85
680.24	330.35
680.685	325.25
681.131	327.65
681.576	339.05
682.021	343.35
682.466	340.75
682.912	329.15
683.357	333.65
683.802	355.85
684.247	393.75
684.692	425.65
685.137	459.85
685.583	509.55
686.028	523.35
686.473	491.35
686.918	424.35
687.363	396.25
687.807	369.55
688.252	349.45
688.697	333.85
689.142	318.95
689.587	314.15
690.032	310.75
690.477	318.55
690.921	328.15
691.366	361.25
691.811	376.05
692.255	406.65
692.7	432.75
693.145	467.95
693.589	635.45
694.034	1036.55
694.478	1422.45
694.923	1639.25
695.367	2138.85
695.812	1117.95
696.256	463.35
696.701	347.35
697.145	324.45
697.59	312.45
698.034	303.25
698.478	303.65
698.922	305.55
699.367	314.85
699.811	317.05
700.255	334.75
700.699	354.95
701.143	385.85
701.588	445.25
702.032	483.25
702.476	485.55
702.92	452.55
703.364	447.95
703.808	581.05
704.252	937.35
704.696	1338.25
705.14	1571.95
705.584	2008.45
706.027	1004.05
706.471	490.95
706.915	370.45
707.359	336.45
707.803	294.75
708.246	292.55
708.69	296.45
709.134	297.25
709.577	294.85
710.021	298.45
710.465	289.85
710.908	288.55
711.352	275.35
711.795	297.95
712.239	324.65
712.682	351.75
713.126	393.65
713.569	434.25
714.012	344.25
714.456	303.55
714.899	281.65
715.342	256.15
715.786	238.95
716.229	237.95
716.672	240.55
717.115	234.45
717.558	232.75
718.002	235.65
718.445	245.15
718.888	267.15
719.331	266.95
719.774	286.95
720.217	280.75
720.66	263.25
721.103	250.85
721.546	241.15
721.989	232.35
722.432	217.25
722.874	224.45
723.317	214.95
723.76	229.25
724.203	239.65
724.645	293.45
725.088	419.25
725.531	529.55
725.974	608.75
726.416	512.65
726.859	294.05
727.301	231.85
727.744	224.65
728.187	216.45
728.629	231.35
729.071	226.85
729.514	241.35
729.956	254.65
730.399	267.35
730.841	270.95
731.283	260.45
731.726	249.35
732.168	246.95
732.61	245.95
733.053	261.15
733.495	291.95
733.937	324.75
734.379	364.55
734.821	401.35
735.263	501.35
735.705	753.25
736.148	1421.25
736.59	2380.75
737.032	2886.75
737.474	2331.15
737.916	754.15
738.357	397.05
738.799	303.75
739.241	277.05
739.683	261.15
740.125	270.75
740.567	276.35
741.008	300.55
741.45	294.35
741.892	302.85
742.334	323.05
742.775	341.25
743.217	322.35
743.658	247.65
744.1	232.45
744.542	242.05
744.983	287.65
745.425	322.75
745.866	320.25
746.307	263.55
746.749	272.75
747.19	298.85
747.632	409.75
748.073	793.85
748.514	1690.55
748.956	2639.35
749.397	3318.45
749.838	2749.15
750.279	2785.25
750.72	1408.45
751.162	508.55
751.603	299.85
752.044	235.45
752.485	198.25
752.926	190.65
753.367	185.35
753.808	179.15
754.249	178.35
754.69	177.05
755.131	172.55
755.572	160.75
756.013	166.05
756.453	170.65
756.894	172.95
757.335	178.65
757.776	183.25
758.216	185.75
758.657	186.05
759.098	187.75
759.538	207.05
759.979	245.75
760.42	338.85
760.86	636.45
761.301	1639.55
761.741	4054.75
762.182	6060.05
762.622	4296.15
763.063	1223.75
763.503	498.85
763.943	319.45
764.384	319.05
764.824	389.35
765.264	423.95
765.705	294.65
766.145	197.95
766.585	174.65
767.025	170.95
767.465	173.55
767.906	216.55
768.346	304.15
768.786	326.55
769.226	251.25
769.666	295.15
770.106	557.45
770.546	1397.85
770.986	2472.15
771.426	2235.25
771.866	743.15
772.306	304.55
772.745	201.45
773.185	163.45
773.625	163.55
774.065	156.35
774.505	181.05
774.944	286.05
775.384	627.15
775.824	1171.15
776.263	1153.75
776.703	476.45
777.142	204.95
777.582	149.25
778.021	131.95
778.461	131.45
778.9	127.85
779.34	127.05
779.779	110.75
780.219	105.15
780.658	102.95
781.097	105.55
781.537	105.05
781.976	98.05
782.415	100.65
782.855	91.85
783.294	93.15
783.733	98.45
784.172	102.85
784.611	101.15
785.05	103.15
785.489	108.95
785.928	113.95
786.367	116.65
786.806	108.85
787.245	122.95
787.684	124.85
788.123	139.25
788.562	120.65
789.001	120.75
789.44	116.05
789.879	110.15
790.317	113.35
790.756	117.55
791.195	119.55
791.634	130.55
792.072	192.95
792.511	331.65
792.95	910.15
793.388	1990.65
793.827	1844.55
794.265	634.35
794.704	249.35
795.142	170.15
795.581	144.45
796.019	126.25
796.458	118.15
796.896	115.25
797.334	124.05
797.773	147.55
798.211	200.35
798.649	396.45
799.087	928.35
799.526	1485.65
799.964	1853.35
800.402	1894.45
800.84	704.55
801.278	273.35
801.716	169.75
802.154	144.15
802.592	130.25
803.03	130.55
803.468	124.55
803.906	132.65
804.344	135.25
804.782	132.65
805.22	116.55
805.658	121.15
806.096	139.95
806.533	146.15
806.971	166.05
807.409	197.85
807.847	288.35
808.284	596.45
808.722	1696.05
809.16	3075.35
809.597	2846.75
810.035	5013.55
810.472	5469.95
810.91	1959.05
811.347	736.85
811.785	373.45
812.222	236.45
812.66	184.95
813.097	153.35
813.535	135.75
813.972	121.15
814.409	111.15
814.846	105.35
815.284	103.75
815.721	89.15
816.158	99.45
816.595	114.45
817.032	161.55
817.47	181.25
817.907	169.05
818.344	146.65
818.781	109.15
819.218	98.45
819.655	115.85
820.092	176.15
820.529	204.95
820.966	165.35
821.403	124.55
821.839	107.15
822.276	94.15
822.713	112.95
823.15	129.85
823.587	113.15
824.023	135.95
824.46	266.75
824.897	815.65
825.333	1281.95
825.77	540.95
826.206	214.85
826.643	128.45
827.08	93.15
827.516	77.35
827.953	68.15
828.389	75.35
828.825	60.85
829.262	60.45
829.698	52.15
830.135	64.25
830.571	56.45
831.007	58.95
831.443	60.15
831.88	54.75
832.316	58.75
832.752	57.55
833.188	61.85
833.624	58.75
834.06	64.65
834.497	60.55
834.933	66.55
835.369	75.25
835.805	62.15
836.241	71.25
836.677	77.75
837.112	86.65
837.548	83.85
837.984	122.65
838.42	188.95
838.856	443.65
839.292	1391.35
839.727	2152.05
840.163	1005.05
840.599	835.75
841.034	1862.75
841.47	2002.85
841.906	724.75
842.341	311.55
842.777	219.35
843.212	297.85
843.648	298.95
844.083	140.35
844.519	86.95
844.954	74.25
845.39	65.05
845.825	54.15
846.261	56.95
846.696	47.05
847.131	43.65
847.566	52.55
848.002	46.35
848.437	45.35
848.872	56.25
849.307	61.15
849.742	77.05
850.177	167.25
850.613	499.75
851.048	821.05
851.483	357.65
851.918	139.15
852.353	78.85
852.788	58.25
853.223	50.35
853.657	50.15
854.092	46.15
854.527	43.25
854.962	35.45
855.397	44.45
855.832	46.55
856.266	37.75
856.701	37.45
857.136	35.95
857.57	32.45
858.005	44.55
858.44	62.45
858.874	40.75
859.309	53.05
859.743	41.25
860.178	48.95
860.612	41.35
861.047	50.45
861.481	64.65
861.915	66.55
862.35	47.35
862.784	32.85
863.218	37.05
863.653	28.25
864.087	45.05
864.521	50.25
864.955	64.95
865.39	143.25
865.824	158.25
866.258	107.35
866.692	147.75
867.126	158.95
867.56	94.35
867.994	53.55
868.428	33.65
868.862	41.35
869.296	50.65
869.73	54.65
870.164	49.25
870.598	43.05
871.031	39.15
871.465	30.55
871.899	31.95
872.333	19.15
872.766	22.75
873.2	23.65
873.634	25.65
874.067	20.85
874.501	29.55
874.935	35.55
875.368	25.35
875.802	27.45
876.235	23.75
876.669	14.85
877.102	24.05
877.535	24.95
877.969	22.65
878.402	25.55
878.836	14.65
879.269	23.95
879.702	21.95
880.135	22.35
880.569	26.05
881.002	30.45
881.435	23.55
881.868	21.55
882.301	23.05
882.734	12.15
883.167	22.15
883.601	17.05
884.034	26.25
884.467	8.25
884.899	22.65
885.332	16.45
885.765	20.05
886.198	12.95
886.631	16.75
887.064	20.75
887.497	22.05
887.929	24.45
888.362	14.25
888.795	20.45
889.228	18.35
889.66	20.85
890.093	19.45
890.526	21.15
890.958	14.25
891.391	17.95
891.823	18.95
892.256	13.55
892.688	14.05
893.121	15.45
893.553	16.95
893.985	24.95
894.418	17.75
894.85	11.95
895.282	15.35
895.715	17.35
896.147	15.35
896.579	13.65
897.011	12.75
897.444	15.85
897.876	17.95
898.308	14.65
898.74	9.65
899.172	6.75
899.604	20.15
900.036	18.45
900.468	17.65
900.9	16.45
901.332	21.95
901.764	13.35
902.196	18.85
902.628	19.15
903.06	15.05
903.491	25.75
903.923	21.35
904.355	19.65
904.787	19.35
905.218	23.15
905.65	19.05
906.082	16.35
906.513	10.05
906.945	13.15
907.376	9.65
907.808	15.75
908.239	27.95
908.671	19.55
909.102	20.95
909.534	27.15
909.965	41.45
910.397	82.75
910.828	282.35
911.259	448.55
911.691	205.05
912.122	98.35
912.553	49.55
912.984	29.85
913.415	21.55
913.847	25.75
914.278	16.85
914.709	14.35
915.14	23.25
915.571	12.75
916.002	14.85
916.433	20.95
916.864	18.05
917.295	12.75
917.726	16.65
918.157	12.95
918.587	25.65
919.018	18.35
919.449	20.65
919.88	23.45
920.311	26.55
920.741	44.95
921.172	154.45
921.603	138.75
922.033	67.25
922.464	44.95
922.895	26.35
923.325	17.95
923.756	18.45
924.186	10.05
924.617	21.55
925.047	35.35
925.478	49.65
925.908	48.75
926.338	27.45
926.769	18.85
927.199	18.65
927.629	9.55
928.06	16.45
928.49	10.85
928.92	17.15
929.35	13.05
929.78	10.05
930.21	5.65
930.641	9.05
931.071	8.65
931.501	8.05
931.931	19.15
932.361	10.55
932.791	5.85
933.221	8.85
933.651	4.85
934.08	15.05
934.51	31.85
934.94	17.05
935.37	2.25
935.8	10.15
936.229	8.75
936.659	18.25
937.089	4.45
937.519	13.85
937.948	28.95
938.378	18.15
938.807	8.75
939.237	4.35
939.666	8.95
940.096	-7.35
940.525	2.95
940.955	8.65
941.384	5.65
941.814	-2.15
942.243	3.35
942.672	4.55
943.102	-2.75
943.531	-0.95
943.96	7.35
944.39	-1.15
944.819	3.65
945.248	-1.95
945.677	-0.95
946.106	3.15
946.535	4.85
946.964	7.55
947.393	-1.25
947.822	-0.35
948.251	-1.45
948.68	7.65
949.109	8.05
949.538	8.35
949.967	1.85
950.396	2.85
950.825	-0.25
951.254	2.05
951.682	-6.65
952.111	3.95
952.54	5.05
952.969	-6.35
953.397	-3.35
953.826	-1.95
954.254	-5.95
954.683	-0.85
955.112	2.75
955.54	3.95
955.969	1.15
956.397	4.85
956.826	-5.25
957.254	6.95
957.682	5.15
958.111	5.35
958.539	1.15
958.967	2.75
959.396	-1.15
959.824	1.35
960.252	5.65
960.68	0.95
961.109	6.75
961.537	-2.45
961.965	5.25
962.393	1.25
962.821	-2.15
963.249	2.35
963.677	6.05
964.105	0.05
964.533	37.95
964.961	34.45
965.389	18.05
965.817	5.55
966.245	2.65
966.672	-2.35
967.1	-6.65
967.528	6.05
967.956	0.05
968.383	-5.35
968.811	0.05
969.239	-1.05
969.666	-2.45
970.094	4.25
970.522	1.45
970.949	-6.55
971.377	-1.85
971.804	2.55
972.232	3.15
972.659	0.85
973.087	-3.95
973.514	-3.75
973.941	-2.85
974.369	8.45
974.796	-0.25
975.223	5.25
975.651	-4.55
976.078	-1.15
976.505	0.95
976.932	2.45
977.359	14.85
977.786	18.85
978.214	5.25
978.641	-0.15
979.068	-5.15
979.495	-2.65
979.922	-4.95
980.349	-1.05
980.776	8.75
981.202	1.45
981.629	5.35
982.056	4.75
982.483	0.85
982.91	2.55
983.337	-5.65
983.763	-0.15
984.19	-5.05
984.617	-0.35
985.043	-4.15
985.47	-1.05
985.897	1.45
986.323	-7.95
986.75	5.15
987.176	4.45
987.603	-3.45
988.029	1.95
988.456	0.95
988.882	3.85
989.308	-6.45
989.735	-11.05
990.161	-5.55
990.587	-7.75
991.014	-0.75
991.44	5.05
991.866	-2.65
992.292	-4.05
992.719	-0.35
993.145	1.45
993.571	-8.35
993.997	-1.75
994.423	2.05
994.849	-0.45
995.275	5.65
995.701	-0.75
996.127	-8.05
996.553	4.75
996.979	4.85
997.405	-3.25
997.83	-5.95
998.256	-3.35
998.682	-4.45
999.108	-8.05
999.534	-2.35
999.959	-3.25
1000.385	0.45
1000.811	-1.35
1001.236	-9.75
1001.662	-7.35
1002.087	-8.25
1002.513	-2.95
1002.938	1.45
1003.364	-4.75
1003.789	-0.05
1004.215	5.75
1004.64	-1.65
1005.066	4.75
1005.491	-2.95
1005.916	-2.55
1006.342	-2.45
1006.767	-7.35
1007.192	9.65
1007.617	-6.35
1008.042	7.95
1008.468	-4.85
1008.893	-6.15
1009.318	-6.75
1009.743	-6.85
1010.168	1.25
1010.593	6.25
1011.018	-5.05
1011.443	-3.65
1011.868	2.75
1012.293	-2.75
1012.718	-5.75
1013.143	0.15
1013.567	-1.35
1013.992	-1.85
1014.417	-8.25
1014.842	1.75
1015.267	-1.55
1015.691	1.85
1016.116	5.75
1016.541	1.95
1016.965	3.55
1017.39	5.45
1017.814	-3.45
1018.239	0.55
1018.663	-5.65
1019.088	-14.35
1019.512	-0.05
1019.937	-1.15
1020.361	-4.35
1020.785	-7.45
1021.21	-3.25
1021.634	-4.45
1022.058	3.35
1022.483	3.45
1022.907	1.95
1023.331	-0.85
1023.755	-3.55
1024.179	-3.25
1024.604	-4.55
1025.028	-4.95
1025.452	1.85
1025.876	0.35
1026.3	1.55
1026.724	-9.05
1027.148	-1.05
1027.572	-9.25
1027.996	-7.75
1028.42	0.85
1028.843	-4.55
1029.267	-4.85
1029.691	-1.05
1030.115	-2.95
1030.539	-3.45
1030.962	-3.95
1031.386	-12.35
1031.81	-3.65
1032.233	-2.25
1032.657	-2.35
1033.08	-4.15
1033.504	0.15
1033.927	-2.55
1034.351	-1.15
1034.774	-4.35
1035.198	-5.55
1035.621	-9.35
1036.045	-4.55
1036.468	0.65
1036.891	-8.15
1037.315	-0.15
1037.738	-9.85
1038.161	-6.55
1038.584	-3.95
1039.008	-7.85
1039.431	-1.55
1039.854	-2.55
1040.277	-2.65
1040.7	-10.45
1041.123	1.05
1041.546	-10.15
1041.969	-1.45
1042.392	1.95
1042.815	-0.25
1043.238	0.95
1043.661	-0.45
1044.084	-6.55
1044.507	-4.25
1044.93	-3.85
1045.352	-0.35
1045.775	2.25
1046.198	-1.85
1046.621	-2.15
1047.043	-0.25
1047.466	7.75
1047.889	-2.15
1048.311	-5.05
1048.734	-3.35
1049.156	1.95
1049.579	2.95
1050.001	-2.85
1050.424	-6.85
1050.846	-6.45
1051.269	-5.45
1051.691	-7.35
1052.113	-0.65
1052.536	2.25
1052.958	1.75
1053.38	-7.75
1053.802	-8.45
1054.225	3.15
1054.647	-7.95
1055.069	0.35
1055.491	4.55
1055.913	-9.85
1056.335	-3.85
1056.757	-2.95
1057.179	-7.05
1057.601	-4.25
1058.023	-5.95
1058.445	-5.95
1058.867	-3.35
1059.289	-3.15
1059.711	-9.75
1060.133	0.85
1060.555	-6.55
1060.976	-2.15
1061.398	-8.25
1061.82	-7.55
1062.241	-3.55
1062.663	-0.95
1063.085	-5.35
1063.506	0.35
1063.928	-0.15
1064.35	-3.25
1064.771	-8.15
1065.193	-1.25
1065.614	-7.95
1066.035	-6.05
1066.457	-2.65
1066.878	1.95
1067.3	-4.25
1067.721	-2.15
1068.142	1.15
1068.564	-1.05
1068.985	-3.85
1069.406	-6.15
1069.827	-6.35
1070.248	-1.45
1070.67	-2.95
1071.091	-5.05
1071.512	-0.25
1071.933	-4.65
1072.354	2.25
1072.775	-5.75
1073.196	-9.85
1073.617	-2.95
1074.038	-6.85
1074.459	-3.55
1074.88	-12.65
1075.3	8.05
1075.721	-6.35
1076.142	1.55
1076.563	0.25
1076.983	-10.35
1077.404	-4.65
1077.825	-8.05
1078.246	-5.65
1078.666	-12.45
1079.087	-6.15
1079.507	-5.85
1079.928	0.15
1080.348	-6.05
1080.769	-8.35
1081.189	-1.85
1081.61	0.55
1082.03	-1.15
1082.451	-5.75
1082.871	-3.85
1083.291	-4.75
1083.711	-2.75
1084.132	-3.65
1084.552	-5.05
1084.972	1.15
1085.392	-2.05
1085.813	-12.55
1086.233	-7.75
1086.653	-6.25
1087.073	-4.25
1087.493	-10.05
1087.913	-3.75
1088.333	-5.35
1088.753	-0.35
1089.173	4.95
1089.593	-1.65
1090.013	0.95
1090.433	5.85
1090.852	-6.55
1091.272	-0.75
1091.692	1.15
1092.112	1.75
1092.531	-4.95
1092.951	-13.35
1093.371	-2.75
1093.79	0.95
1094.21	-0.85
1094.63	-4.95
1095.049	-9.85
1095.469	-2.75
1095.888	-1.95
1096.308	5.95
1096.727	3.35
1097.146	-8.65
1097.566	-0.25
1097.985	-7.35
1098.405	-6.25
1098.824	-4.95
1099.243	-10.85
1099.662	-3.65
1100.082	-3.05
1100.501	-1.75
1100.92	-0.85
1101.339	-3.55
1101.758	-5.95
