Data from 20171114-ORNL-Ar_H_NY_Subt18_08-07-48-359.txt Node
Date: Tue Nov 14 08:07:48 EST 2017
User: Ender
Spectrometer: HR+D1039
Trigger mode: 0
Integration Time (sec): 2.730000E-2
Scans to average: 10
Electric dark correction enabled: true
Nonlinearity correction enabled: false
Boxcar width: 0
XAxis mode: Wavelengths
Number of Pixels in Spectrum: 2048
>>>>>Begin Spectral Data<<<<<
187.836	-3.76
188.309	-3.76
188.782	-3.76
189.255	4.34
189.728	-1.36
190.201	1.54
190.674	4.54
191.147	6.04
191.619	-1.76
192.092	1.74
192.565	6.14
193.038	-0.96
193.511	-4.66
193.984	-5.06
194.456	-2.86
194.929	2.24
195.402	-5.36
195.874	-0.86
196.347	1.14
196.82	-6.86
197.292	4.14
197.765	4.24
198.237	-8.26
198.71	1.34
199.182	-1.96
199.655	3.74
200.127	-3.86
200.6	-3.46
201.072	-2.66
201.544	-3.26
202.017	-4.06
202.489	6.54
202.961	2.84
203.433	-4.86
203.906	-4.56
204.378	-3.16
204.85	-2.16
205.322	-8.76
205.794	0.34
206.266	-3.66
206.739	-7.66
207.211	3.44
207.683	-11.16
208.155	-5.46
208.627	-7.56
209.099	-2.56
209.57	-9.06
210.042	0.64
210.514	-5.46
210.986	2.84
211.458	-7.66
211.93	-1.66
212.402	-2.56
212.873	-7.46
213.345	-13.16
213.817	-12.56
214.288	-1.26
214.76	-8.46
215.232	-0.96
215.703	-4.56
216.175	0.94
216.646	-4.86
217.118	-8.96
217.589	-5.66
218.061	-0.56
218.532	-3.36
219.004	-6.26
219.475	-3.86
219.946	0.14
220.418	-1.86
220.889	4.44
221.36	1.64
221.832	-9.86
222.303	-9.66
222.774	-0.66
223.245	-7.56
223.717	-9.06
224.188	-4.06
224.659	-6.06
225.13	-5.26
225.601	-2.86
226.072	-1.46
226.543	0.54
227.014	-0.66
227.485	2.14
227.956	-5.36
228.427	-1.76
228.898	4.74
229.369	4.64
229.839	-0.26
230.31	-7.26
230.781	0.14
231.252	-0.96
231.722	-2.76
232.193	-3.36
232.664	2.54
233.135	-0.96
233.605	-0.76
234.076	-7.46
234.546	-3.26
235.017	5.34
235.487	2.94
235.958	-0.06
236.428	-1.16
236.899	6.54
237.369	-0.06
237.84	-3.86
238.31	10.04
238.78	-1.36
239.251	1.54
239.721	0.64
240.191	4.04
240.662	3.34
241.132	-1.26
241.602	1.44
242.072	5.34
242.542	5.74
243.013	-0.76
243.483	6.44
243.953	2.34
244.423	8.64
244.893	-6.26
245.363	4.44
245.833	7.34
246.303	-2.56
246.773	8.94
247.243	3.24
247.712	7.54
248.182	4.94
248.652	6.14
249.122	-5.06
249.592	10.44
250.061	19.44
250.531	24.84
251.001	13.64
251.471	16.44
251.94	18.94
252.41	5.44
252.879	-0.16
253.349	10.54
253.818	7.14
254.288	8.44
254.757	5.14
255.227	-5.66
255.696	2.54
256.166	5.14
256.635	5.84
257.105	15.04
257.574	5.74
258.043	6.84
258.513	8.24
258.982	16.44
259.451	9.94
259.92	9.94
260.389	15.14
260.859	15.54
261.328	14.64
261.797	18.04
262.266	10.74
262.735	6.54
263.204	3.44
263.673	-0.76
264.142	4.64
264.611	-7.06
265.08	-3.56
265.549	-2.06
266.018	7.34
266.487	3.64
266.955	-2.56
267.424	0.14
267.893	7.44
268.362	-4.56
268.83	2.54
269.299	11.44
269.768	6.54
270.236	6.14
270.705	0.54
271.174	7.74
271.642	6.94
272.111	6.34
272.579	15.64
273.048	19.24
273.516	18.04
273.985	20.94
274.453	23.44
274.922	17.54
275.39	8.64
275.858	5.44
276.327	8.24
276.795	18.24
277.263	9.64
277.731	25.74
278.2	54.14
278.668	46.64
279.136	42.24
279.604	20.24
280.072	15.54
280.54	11.64
281.008	5.84
281.477	11.84
281.945	7.94
282.413	14.24
282.881	8.94
283.348	6.34
283.816	14.54
284.284	17.44
284.752	23.34
285.22	12.84
285.688	14.24
286.156	20.24
286.623	34.04
287.091	44.94
287.559	24.84
288.026	17.94
288.494	16.24
288.962	7.14
289.429	12.94
289.897	17.54
290.364	15.74
290.832	15.54
291.3	17.04
291.767	17.54
292.234	14.24
292.702	11.84
293.169	11.84
293.637	21.14
294.104	15.14
294.571	5.54
295.039	8.64
295.506	13.54
295.973	21.64
296.44	16.14
296.908	21.64
297.375	12.04
297.842	15.64
298.309	19.54
298.776	11.24
299.243	16.74
299.71	12.14
300.177	22.84
300.644	22.34
301.111	18.44
301.578	24.34
302.045	14.54
302.512	23.64
302.979	27.24
303.446	20.04
303.913	17.54
304.379	23.34
304.846	24.64
305.313	22.94
305.78	21.94
306.246	27.44
306.713	28.34
307.18	24.04
307.646	23.44
308.113	33.94
308.579	17.14
309.046	25.14
309.512	25.24
309.979	14.34
310.445	23.54
310.912	29.64
311.378	28.14
311.845	34.44
312.311	18.94
312.777	30.64
313.244	30.04
313.71	37.34
314.176	32.74
314.642	26.34
315.109	29.24
315.575	32.64
316.041	37.64
316.507	29.24
316.973	35.94
317.439	25.84
317.905	29.64
318.371	28.64
318.837	33.64
319.303	31.54
319.769	28.24
320.235	34.74
320.701	31.54
321.167	36.24
321.633	35.34
322.099	37.64
322.564	41.64
323.03	35.64
323.496	29.24
323.962	36.54
324.427	36.44
324.893	41.14
325.359	34.24
325.824	37.24
326.29	29.84
326.755	35.74
327.221	40.14
327.686	37.54
328.152	39.34
328.617	35.44
329.083	41.24
329.548	45.84
330.014	47.54
330.479	33.64
330.944	36.04
331.41	40.54
331.875	39.74
332.34	35.34
332.805	43.34
333.271	47.54
333.736	38.34
334.201	47.14
334.666	45.04
335.131	50.94
335.596	50.54
336.061	47.44
336.526	42.34
336.991	44.54
337.456	57.94
337.921	44.64
338.386	39.44
338.851	45.34
339.316	38.94
339.781	41.34
340.246	50.14
340.711	47.44
341.175	49.44
341.64	41.94
342.105	46.04
342.569	48.04
343.034	55.74
343.499	52.94
343.963	50.34
344.428	59.14
344.893	55.34
345.357	54.54
345.822	59.34
346.286	58.44
346.751	67.64
347.215	62.24
347.679	72.44
348.144	94.94
348.608	74.84
349.073	62.64
349.537	68.14
350.001	73.04
350.465	87.84
350.93	76.74
351.394	77.84
351.858	67.24
352.322	82.34
352.786	74.34
353.25	94.84
353.715	104.24
354.179	96.94
354.643	114.04
355.107	112.24
355.571	103.14
356.035	100.64
356.498	109.04
356.962	110.54
357.426	119.64
357.89	107.44
358.354	85.74
358.818	76.94
359.281	74.74
359.745	77.54
360.209	69.74
360.673	74.44
361.136	78.24
361.6	75.64
362.064	78.64
362.527	79.84
362.991	85.34
363.454	76.74
363.918	72.34
364.381	71.14
364.845	75.44
365.308	77.94
365.772	81.84
366.235	82.54
366.698	79.64
367.162	82.14
367.625	79.54
368.088	84.54
368.552	86.84
369.015	83.64
369.478	91.64
369.941	96.44
370.404	84.34
370.867	98.64
371.331	108.94
371.794	110.14
372.257	108.44
372.72	113.34
373.183	104.94
373.646	99.94
374.109	95.44
374.572	99.94
375.035	105.74
375.497	99.14
375.96	99.64
376.423	92.94
376.886	101.54
377.349	104.74
377.811	97.34
378.274	104.64
378.737	99.04
379.199	108.64
379.662	109.44
380.125	117.14
380.587	104.64
381.05	117.84
381.512	123.04
381.975	128.74
382.437	120.24
382.9	118.74
383.362	127.74
383.825	131.54
384.287	141.94
384.75	139.14
385.212	131.74
385.674	133.64
386.136	127.54
386.599	116.44
387.061	125.14
387.523	127.24
387.985	127.64
388.447	135.54
388.91	138.14
389.372	156.24
389.834	147.44
390.296	136.04
390.758	153.24
391.22	164.44
391.682	203.94
392.144	292.94
392.606	221.44
393.068	161.54
393.529	165.54
393.991	150.64
394.453	142.74
394.915	149.24
395.377	191.84
395.838	210.44
396.3	141.64
396.762	138.44
397.224	130.44
397.685	124.14
398.147	125.84
398.608	124.24
399.07	132.94
399.531	127.34
399.993	130.94
400.454	146.94
400.916	136.14
401.377	138.54
401.839	141.04
402.3	147.14
402.762	155.64
403.223	169.04
403.684	174.04
404.145	153.74
404.607	154.14
405.068	157.94
405.529	159.64
405.99	175.64
406.451	169.64
406.913	166.94
407.374	153.14
407.835	154.64
408.296	156.74
408.757	163.74
409.218	174.34
409.679	175.94
410.14	179.64
410.601	167.44
411.062	175.74
411.522	188.24
411.983	184.04
412.444	166.74
412.905	175.74
413.366	176.34
413.826	190.64
414.287	207.14
414.748	258.84
415.208	235.04
415.669	201.44
416.13	206.54
416.59	194.34
417.051	204.74
417.511	206.24
417.972	221.84
418.432	243.44
418.893	275.34
419.353	243.14
419.814	190.34
420.274	175.34
420.734	177.54
421.195	191.14
421.655	192.14
422.115	186.34
422.576	183.74
423.036	191.44
423.496	197.44
423.956	202.14
424.416	223.94
424.876	255.74
425.336	259.64
425.797	256.04
426.257	243.94
426.717	227.54
427.177	219.84
427.637	214.04
428.097	229.34
428.556	232.14
429.016	260.74
429.476	259.84
429.936	267.14
430.396	269.44
430.856	282.44
431.315	310.94
431.775	336.84
432.235	366.34
432.694	338.84
433.154	356.14
433.614	382.04
434.073	327.54
434.533	281.74
434.993	261.24
435.452	267.64
435.912	283.14
436.371	287.24
436.83	278.54
437.29	259.34
437.749	245.94
438.209	243.04
438.668	267.24
439.127	277.24
439.587	253.54
440.046	240.24
440.505	250.14
440.964	271.64
441.424	312.54
441.883	306.64
442.342	253.64
442.801	226.44
443.26	216.64
443.719	218.64
444.178	210.64
444.637	209.84
445.096	210.74
445.555	210.44
446.014	216.94
446.473	221.94
446.932	235.84
447.391	211.54
447.849	219.84
448.308	208.64
448.767	219.34
449.226	231.04
449.685	235.64
450.143	234.14
450.602	233.24
451.061	221.04
451.519	222.24
451.978	217.14
452.436	220.54
452.895	231.64
453.353	246.04
453.812	233.34
454.27	231.74
454.729	234.54
455.187	229.24
455.646	237.24
456.104	240.84
456.562	251.74
457.021	261.84
457.479	256.94
457.937	268.44
458.395	253.34
458.854	242.44
459.312	251.34
459.77	268.94
460.228	247.14
460.686	231.94
461.144	244.64
461.602	230.14
462.06	221.94
462.518	238.64
462.976	243.14
463.434	254.64
463.892	253.84
464.35	263.84
464.808	279.84
465.266	263.34
465.724	261.94
466.181	266.14
466.639	262.34
467.097	283.74
467.555	282.34
468.012	293.74
468.47	291.24
468.928	320.74
469.385	330.54
469.843	333.34
470.3	341.14
470.758	349.84
471.215	371.44
471.673	392.24
472.13	405.54
472.588	412.44
473.045	361.44
473.503	357.44
473.96	383.34
474.417	392.64
474.875	415.14
475.332	470.54
475.789	449.54
476.246	453.04
476.704	473.04
477.161	494.64
477.618	507.84
478.075	546.54
478.532	590.94
478.989	656.34
479.446	776.04
479.903	735.54
480.36	789.84
480.817	832.34
481.274	930.14
481.731	1025.74
482.188	1129.44
482.645	1248.94
483.102	1361.94
483.558	1483.84
484.015	1531.14
484.472	1514.24
484.929	1463.94
485.385	1411.84
485.842	1371.54
486.299	1315.64
486.755	1265.14
487.212	1048.34
487.668	890.34
488.125	818.14
488.582	749.24
489.038	724.54
489.494	683.84
489.951	663.74
490.407	628.54
490.864	626.74
491.32	618.84
491.776	619.44
492.233	630.44
492.689	587.84
493.145	584.14
493.602	576.64
494.058	589.74
494.514	604.24
494.97	611.04
495.426	625.04
495.882	597.94
496.338	584.74
496.794	595.04
497.251	592.64
497.707	612.84
498.163	608.84
498.618	617.54
499.074	616.54
499.53	649.64
499.986	656.64
500.442	622.54
500.898	607.34
501.354	607.04
501.809	613.74
502.265	616.14
502.721	635.34
503.177	651.84
503.632	643.44
504.088	651.14
504.543	700.24
504.999	687.84
505.455	625.54
505.91	613.84
506.366	612.84
506.821	608.04
507.277	603.14
507.732	606.64
508.187	603.84
508.643	611.54
509.098	618.94
509.553	633.64
510.009	645.74
510.464	637.64
510.919	656.84
511.375	668.14
511.83	685.64
512.285	707.84
512.74	737.74
513.195	748.04
513.65	745.14
514.105	743.84
514.56	747.04
515.015	767.94
515.47	773.34
515.925	759.44
516.38	757.14
516.835	755.84
517.29	754.04
517.745	744.44
518.2	735.44
518.655	724.84
519.109	711.34
519.564	715.54
520.019	702.14
520.474	698.84
520.928	701.44
521.383	693.84
521.838	685.44
522.292	690.14
522.747	681.34
523.201	682.94
523.656	681.54
524.11	669.64
524.565	675.14
525.019	669.04
525.474	673.44
525.928	670.44
526.382	673.14
526.837	666.24
527.291	680.24
527.745	670.84
528.2	681.14
528.654	666.94
529.108	661.94
529.562	662.14
530.016	671.34
530.47	661.74
530.925	666.24
531.379	671.34
531.833	680.34
532.287	673.14
532.741	669.84
533.195	672.54
533.649	685.24
534.103	693.04
534.556	680.14
535.01	687.74
535.464	674.74
535.918	695.24
536.372	689.94
536.826	683.04
537.279	674.44
537.733	687.34
538.187	690.34
538.64	690.14
539.094	688.84
539.548	712.24
540.001	701.84
540.455	692.74
540.908	709.34
541.362	711.74
541.815	730.64
542.269	745.24
542.722	729.44
543.175	737.34
543.629	741.64
544.082	761.84
544.536	748.04
544.989	761.64
545.442	766.24
545.895	758.94
546.349	758.84
546.802	759.54
547.255	766.54
547.708	775.64
548.161	789.74
548.614	800.54
549.067	800.44
549.52	790.54
549.973	779.54
550.426	771.44
550.879	766.44
551.332	766.74
551.785	778.64
552.238	777.14
552.691	788.04
553.144	803.74
553.596	817.14
554.049	830.94
554.502	848.24
554.955	872.84
555.407	878.44
555.86	866.04
556.313	866.14
556.765	859.54
557.218	858.44
557.67	851.94
558.123	851.74
558.576	836.24
559.028	850.04
559.48	837.14
559.933	840.24
560.385	804.64
560.838	768.74
561.29	764.54
561.742	753.24
562.195	742.54
562.647	742.04
563.099	742.04
563.551	747.34
564.004	756.34
564.456	740.04
564.908	744.34
565.36	720.94
565.812	700.04
566.264	707.54
566.716	699.94
567.168	695.14
567.62	695.94
568.072	689.24
568.524	683.04
568.976	675.74
569.428	659.64
569.88	651.54
570.332	665.94
570.784	656.74
571.235	653.54
571.687	685.44
572.139	683.34
572.59	687.84
573.042	688.84
573.494	678.64
573.945	689.34
574.397	668.04
574.849	667.74
575.3	665.54
575.752	667.64
576.203	647.74
576.655	663.04
577.106	655.84
577.557	644.34
578.009	647.24
578.46	651.34
578.912	639.34
579.363	648.44
579.814	648.44
580.265	645.64
580.717	645.54
581.168	649.14
581.619	653.14
582.07	662.74
582.521	660.34
582.972	652.94
583.423	646.74
583.875	662.64
584.326	673.14
584.777	729.44
585.227	811.54
585.678	890.94
586.129	991.94
586.58	1047.34
587.031	1133.44
587.482	1292.34
587.933	1468.04
588.384	1276.14
588.834	957.54
589.285	782.04
589.736	759.74
590.186	754.84
590.637	754.14
591.088	727.14
591.538	717.94
591.989	702.24
592.439	708.04
592.89	702.64
593.34	695.14
593.791	688.84
594.241	689.74
594.692	682.44
595.142	684.24
595.593	681.84
596.043	687.54
596.493	701.74
596.943	696.14
597.394	702.64
597.844	697.14
598.294	713.64
598.744	742.44
599.195	759.94
599.645	797.64
600.095	824.14
600.545	888.84
600.995	939.34
601.445	1006.74
601.895	1058.14
602.345	1110.24
602.795	1078.24
603.245	1032.44
603.695	976.54
604.145	929.84
604.594	878.54
605.044	825.04
605.494	773.74
605.944	740.74
606.393	725.74
606.843	718.34
607.293	710.84
607.743	709.24
608.192	727.94
608.642	741.74
609.091	739.04
609.541	755.44
609.99	748.34
610.44	747.24
610.889	689.04
611.339	683.54
611.788	665.14
612.238	683.34
612.687	699.64
613.136	701.94
613.586	725.14
614.035	714.94
614.484	740.14
614.933	743.54
615.383	726.94
615.832	730.54
616.281	707.94
616.73	673.54
617.179	647.74
617.628	626.24
618.077	609.14
618.526	604.64
618.975	603.34
619.424	603.04
619.873	596.94
620.322	592.94
620.771	587.04
621.22	588.74
621.669	578.34
622.118	566.34
622.567	562.24
623.015	553.44
623.464	557.54
623.913	543.64
624.361	541.54
624.81	541.84
625.259	549.24
625.707	540.34
626.156	543.44
626.604	554.04
627.053	545.44
627.501	551.14
627.95	549.34
628.398	561.34
628.847	559.24
629.295	554.34
629.744	566.34
630.192	548.54
630.64	556.44
631.089	550.14
631.537	564.54
631.985	573.54
632.433	589.84
632.881	601.54
633.33	639.14
633.778	630.74
634.226	553.64
634.674	560.14
635.122	565.94
635.57	583.44
636.018	610.54
636.466	575.14
636.914	542.64
637.362	558.44
637.81	558.94
638.258	563.04
638.705	567.94
639.153	594.34
639.601	603.84
640.049	628.84
640.497	653.34
640.944	671.04
641.392	631.04
641.84	596.14
642.287	564.44
642.735	552.34
643.182	558.14
643.63	557.04
644.078	560.74
644.525	577.14
644.973	581.14
645.42	596.74
645.867	611.44
646.315	624.04
646.762	640.34
647.21	669.24
647.657	698.74
648.104	747.24
648.551	748.74
648.999	822.94
649.446	902.84
649.893	990.44
650.34	1137.74
650.787	1369.94
651.234	1687.84
651.682	2217.14
652.129	3074.84
652.576	4415.74
653.023	6519.44
653.47	8934.64
653.917	11082.84
654.363	12738.84
654.81	14020.94
655.257	13299.74
655.704	8722.54
656.151	5149.14
656.598	3312.94
657.044	2359.24
657.491	1816.14
657.938	1448.24
658.385	1208.54
658.831	1046.44
659.278	933.14
659.724	832.94
660.171	773.84
660.618	712.74
661.064	668.54
661.511	649.34
661.957	639.94
662.404	637.74
662.85	635.74
663.296	615.14
663.743	542.64
664.189	520.94
664.635	524.34
665.082	510.44
665.528	517.14
665.974	499.94
666.42	497.64
666.867	490.94
667.313	475.84
667.759	475.64
668.205	476.34
668.651	475.24
669.097	476.04
669.543	498.24
669.989	458.54
670.435	440.74
670.881	436.14
671.327	437.64
671.773	462.54
672.219	476.94
672.665	529.64
673.11	573.04
673.556	609.94
674.002	646.34
674.448	631.64
674.893	538.24
675.339	463.34
675.785	427.44
676.23	412.94
676.676	383.34
677.122	371.44
677.567	361.94
678.013	350.74
678.458	355.44
678.904	350.94
679.349	340.24
679.794	344.64
680.24	337.14
680.685	343.24
681.131	345.14
681.576	346.84
682.021	344.24
682.466	343.14
682.912	333.94
683.357	344.14
683.802	375.04
684.247	408.54
684.692	438.04
685.137	491.64
685.583	534.24
686.028	543.74
686.473	505.14
686.918	425.34
687.363	399.54
687.807	377.74
688.252	353.44
688.697	349.24
689.142	334.84
689.587	323.74
690.032	317.94
690.477	328.04
690.921	341.04
691.366	372.44
691.811	393.54
692.255	419.44
692.7	452.74
693.145	500.24
693.589	689.64
694.034	1125.84
694.478	1509.44
694.923	1682.44
695.367	2179.04
695.812	1163.04
696.256	487.04
696.701	357.54
697.145	336.14
697.59	321.74
698.034	311.14
698.478	322.34
698.922	325.44
699.367	323.24
699.811	329.04
700.255	340.74
700.699	384.84
701.143	418.94
701.588	468.44
702.032	496.44
702.476	489.84
702.92	476.34
703.364	485.04
703.808	621.44
704.252	1019.24
704.696	1429.84
705.14	1611.74
705.584	2063.54
706.027	1021.74
706.471	507.34
706.915	384.24
707.359	341.14
707.803	307.94
708.246	301.34
708.69	302.34
709.134	309.74
709.577	308.94
710.021	312.04
710.465	309.84
710.908	292.34
711.352	290.04
711.795	311.54
712.239	344.34
712.682	375.64
713.126	410.94
713.569	460.14
714.012	366.34
714.456	318.74
714.899	295.14
715.342	272.34
715.786	249.74
716.229	252.84
716.672	255.94
717.115	246.34
717.558	247.34
718.002	247.24
718.445	257.74
718.888	287.74
719.331	290.54
719.774	307.24
720.217	300.34
720.66	280.84
721.103	267.74
721.546	248.44
721.989	239.74
722.432	223.44
722.874	232.64
723.317	227.64
723.76	238.44
724.203	256.14
724.645	318.34
725.088	440.84
725.531	556.44
725.974	623.04
726.416	534.04
726.859	304.64
727.301	234.24
727.744	236.44
728.187	230.24
728.629	237.44
729.071	238.74
729.514	252.74
729.956	276.04
730.399	274.64
730.841	290.24
731.283	269.74
731.726	263.44
732.168	263.34
732.61	260.74
733.053	278.84
733.495	319.64
733.937	345.44
734.379	387.04
734.821	425.24
735.263	542.24
735.705	827.74
736.148	1582.64
736.59	2509.34
737.032	2946.34
737.474	2403.84
737.916	790.24
738.357	423.04
738.799	322.34
739.241	292.64
739.683	272.84
740.125	289.74
740.567	289.44
741.008	300.14
741.45	309.44
741.892	317.24
742.334	339.94
742.775	344.64
743.217	322.74
743.658	267.64
744.1	246.94
744.542	262.04
744.983	300.74
745.425	330.14
745.866	333.14
746.307	281.64
746.749	280.84
747.19	314.44
747.632	456.94
748.073	888.54
748.514	1846.54
748.956	2771.14
749.397	3458.24
749.838	2864.04
750.279	2844.74
750.72	1441.94
751.162	534.14
751.603	313.04
752.044	248.44
752.485	209.14
752.926	203.44
753.367	201.14
753.808	191.94
754.249	193.84
754.69	190.14
755.131	182.74
755.572	177.54
756.013	174.44
756.453	183.14
756.894	188.54
757.335	191.44
757.776	190.74
758.216	199.14
758.657	199.74
759.098	201.34
759.538	225.64
759.979	263.14
760.42	380.24
760.86	702.74
761.301	1842.94
761.741	4354.34
762.182	6151.44
762.622	4347.24
763.063	1259.04
763.503	527.94
763.943	333.64
764.384	338.24
764.824	407.14
765.264	434.94
765.705	304.94
766.145	214.14
766.585	188.44
767.025	190.84
767.465	189.84
767.906	240.94
768.346	318.74
768.786	332.44
769.226	261.14
769.666	319.64
770.106	634.34
770.546	1557.94
770.986	2565.44
771.426	2283.34
771.866	768.34
772.306	328.54
772.745	204.74
773.185	167.14
773.625	170.34
774.065	163.14
774.505	191.74
774.944	313.14
775.384	678.64
775.824	1195.54
776.263	1163.24
776.703	493.44
777.142	212.54
777.582	157.64
778.021	139.04
778.461	143.04
778.9	138.04
779.34	126.84
779.779	115.44
780.219	109.04
780.658	105.64
781.097	107.44
781.537	114.04
781.976	113.24
782.415	100.64
782.855	105.34
783.294	103.34
783.733	104.64
784.172	113.14
784.611	98.94
785.05	108.44
785.489	108.84
785.928	118.34
786.367	121.44
786.806	114.54
787.245	128.74
787.684	127.14
788.123	146.84
788.562	131.14
789.001	128.34
789.44	122.14
789.879	120.54
790.317	116.74
790.756	125.24
791.195	126.84
791.634	143.24
792.072	198.34
792.511	365.94
792.95	1015.04
793.388	2082.74
793.827	1862.14
794.265	662.74
794.704	268.34
795.142	180.04
795.581	149.74
796.019	132.74
796.458	123.74
796.896	122.54
797.334	124.84
797.773	152.14
798.211	214.44
798.649	445.44
799.087	1002.34
799.526	1563.14
799.964	1962.74
800.402	1944.34
800.84	733.54
801.278	297.24
801.716	184.14
802.154	151.04
802.592	137.94
803.03	137.34
803.468	126.54
803.906	139.14
804.344	147.14
804.782	137.24
805.22	124.44
805.658	130.24
806.096	150.84
806.533	158.54
806.971	179.64
807.409	222.64
807.847	324.44
808.284	665.24
808.722	1844.04
809.16	3181.34
809.597	3078.24
810.035	5294.14
810.472	5504.64
810.91	2008.04
811.347	772.04
811.785	393.64
812.222	243.24
812.66	194.54
813.097	163.94
813.535	147.34
813.972	128.54
814.409	115.64
814.846	107.94
815.284	113.44
815.721	99.94
816.158	105.94
816.595	121.74
817.032	179.14
817.47	190.74
817.907	155.54
818.344	144.64
818.781	116.14
819.218	104.04
819.655	130.84
820.092	182.44
820.529	209.54
820.966	172.44
821.403	129.14
821.839	105.84
822.276	102.74
822.713	118.34
823.15	134.44
823.587	113.54
824.023	145.14
824.46	299.94
824.897	891.44
825.333	1303.84
825.77	558.34
826.206	227.14
826.643	128.14
827.08	96.34
827.516	86.94
827.953	81.04
828.389	80.14
828.825	68.84
829.262	66.84
829.698	59.14
830.135	64.64
830.571	59.14
831.007	72.24
831.443	67.24
831.88	62.74
832.316	66.34
832.752	64.14
833.188	62.04
833.624	63.14
834.06	70.84
834.497	69.34
834.933	75.14
835.369	74.14
835.805	70.34
836.241	75.24
836.677	72.64
837.112	88.34
837.548	102.14
837.984	136.94
838.42	196.74
838.856	501.94
839.292	1492.54
839.727	2212.84
840.163	1038.84
840.599	914.64
841.034	2006.44
841.47	2022.44
841.906	755.54
842.341	329.84
842.777	234.54
843.212	310.44
843.648	302.74
844.083	156.04
844.519	97.04
844.954	73.34
845.39	59.24
845.825	63.04
846.261	58.54
846.696	54.64
847.131	54.14
847.566	58.64
848.002	51.84
848.437	54.84
848.872	57.54
849.307	61.84
849.742	84.14
850.177	180.04
850.613	558.94
851.048	851.74
851.483	368.04
851.918	156.74
852.353	83.44
852.788	63.74
853.223	55.14
853.657	57.44
854.092	50.14
854.527	42.34
854.962	37.84
855.397	42.44
855.832	54.14
856.266	43.54
856.701	40.94
857.136	34.44
857.57	40.64
858.005	46.94
858.44	59.34
858.874	39.14
859.309	55.54
859.743	36.84
860.178	44.44
860.612	38.64
861.047	51.74
861.481	65.34
861.915	69.24
862.35	50.84
862.784	38.84
863.218	34.74
863.653	32.64
864.087	48.04
864.521	58.24
864.955	66.74
865.39	160.24
865.824	172.64
866.258	111.64
866.692	161.54
867.126	165.34
867.56	106.64
867.994	54.34
868.428	40.94
868.862	46.24
869.296	51.54
869.73	57.74
870.164	52.74
870.598	42.64
871.031	35.84
871.465	34.44
871.899	31.64
872.333	28.34
872.766	23.24
873.2	28.54
873.634	34.94
874.067	28.74
874.501	28.34
874.935	35.64
875.368	32.64
875.802	26.24
876.235	28.44
876.669	23.94
877.102	21.54
877.535	26.84
877.969	23.34
878.402	26.64
878.836	16.24
879.269	22.74
879.702	24.64
880.135	19.54
880.569	17.94
881.002	28.44
881.435	18.24
881.868	17.34
882.301	25.74
882.734	16.34
883.167	21.54
883.601	16.94
884.034	25.84
884.467	9.94
884.899	19.34
885.332	21.84
885.765	12.64
886.198	17.64
886.631	19.34
887.064	14.84
887.497	18.64
887.929	26.74
888.362	15.94
888.795	17.24
889.228	17.04
889.66	22.84
890.093	18.64
890.526	19.74
890.958	18.04
891.391	20.14
891.823	25.14
892.256	14.74
892.688	16.14
893.121	17.84
893.553	19.84
893.985	26.74
894.418	20.64
894.85	12.94
895.282	21.74
895.715	19.44
896.147	20.84
896.579	19.44
897.011	14.64
897.444	21.84
897.876	10.44
898.308	18.64
898.74	17.24
899.172	13.74
899.604	25.54
900.036	18.74
900.468	18.14
900.9	16.84
901.332	16.54
901.764	16.34
902.196	22.54
902.628	22.64
903.06	17.64
903.491	33.34
903.923	25.04
904.355	24.34
904.787	22.24
905.218	26.24
905.65	30.94
906.082	14.34
906.513	9.74
906.945	15.04
907.376	15.44
907.808	24.14
908.239	23.04
908.671	22.94
909.102	24.14
909.534	27.34
909.965	45.04
910.397	89.44
910.828	304.54
911.259	456.84
911.691	212.14
912.122	110.14
912.553	48.54
912.984	38.24
913.415	24.84
913.847	29.64
914.278	20.34
914.709	14.74
915.14	16.44
915.571	15.14
916.002	13.64
916.433	20.44
916.864	19.74
917.295	11.04
917.726	23.84
918.157	16.34
918.587	25.44
919.018	27.14
919.449	20.74
919.88	22.44
920.311	32.14
920.741	50.54
921.172	163.84
921.603	144.24
922.033	63.84
922.464	46.04
922.895	28.14
923.325	27.04
923.756	20.34
924.186	13.04
924.617	25.74
925.047	42.74
925.478	54.04
925.908	44.44
926.338	27.14
926.769	22.54
927.199	19.14
927.629	12.54
928.06	16.54
928.49	21.34
928.92	12.14
929.35	13.04
929.78	12.14
930.21	9.44
930.641	11.44
931.071	16.74
931.501	2.64
931.931	9.04
932.361	13.44
932.791	4.64
933.221	8.74
933.651	7.34
934.08	19.14
934.51	35.64
934.94	8.64
935.37	13.14
935.8	12.54
936.229	16.84
936.659	9.44
937.089	8.04
937.519	13.44
937.948	22.34
938.378	16.14
938.807	6.64
939.237	3.94
939.666	6.04
940.096	-1.86
940.525	8.44
940.955	-0.86
941.384	6.74
941.814	-5.06
942.243	-0.36
942.672	4.54
943.102	1.24
943.531	-2.86
943.96	7.24
944.39	5.54
944.819	5.04
945.248	7.24
945.677	3.54
946.106	8.24
946.535	13.04
946.964	3.64
947.393	0.74
947.822	3.84
948.251	-3.96
948.68	8.94
949.109	8.34
949.538	11.34
949.967	2.54
950.396	2.34
950.825	0.84
951.254	3.44
951.682	-0.26
952.111	3.44
952.54	9.54
952.969	-6.16
953.397	0.04
953.826	-0.16
954.254	-2.16
954.683	6.54
955.112	-1.26
955.54	4.04
955.969	4.24
956.397	0.14
956.826	-0.56
957.254	3.24
957.682	4.34
958.111	8.14
958.539	5.04
958.967	2.34
959.396	-2.26
959.824	0.64
960.252	7.14
960.68	0.34
961.109	-1.26
961.537	-0.36
961.965	2.84
962.393	0.54
962.821	-3.36
963.249	-1.16
963.677	7.74
964.105	10.04
964.533	43.54
964.961	42.84
965.389	22.94
965.817	4.84
966.245	7.54
966.672	1.84
967.1	-3.96
967.528	0.24
967.956	0.24
968.383	-0.66
968.811	-4.66
969.239	0.34
969.666	-4.66
970.094	1.74
970.522	0.34
970.949	-0.76
971.377	-5.46
971.804	0.04
972.232	-1.26
972.659	3.84
973.087	-3.76
973.514	2.44
973.941	-7.26
974.369	5.84
974.796	-3.76
975.223	-3.06
975.651	4.14
976.078	-2.96
976.505	-0.76
976.932	6.94
977.359	20.04
977.786	14.54
978.214	4.54
978.641	1.24
979.068	-3.46
979.495	-5.46
979.922	-1.16
980.349	0.74
980.776	1.84
981.202	-0.26
981.629	6.44
982.056	2.24
982.483	0.14
982.91	1.94
983.337	1.34
983.763	-0.86
984.19	-8.36
984.617	-2.36
985.043	-2.96
985.47	-5.66
985.897	-2.76
986.323	-8.56
986.75	4.04
987.176	-0.86
987.603	3.14
988.029	2.64
988.456	-6.96
988.882	3.54
989.308	-10.76
989.735	-1.46
990.161	5.44
990.587	-9.56
991.014	0.04
991.44	9.44
991.866	2.64
992.292	-6.36
992.719	-0.76
993.145	6.04
993.571	-11.76
993.997	2.04
994.423	-2.26
994.849	-1.66
995.275	0.64
995.701	7.64
996.127	-0.26
996.553	6.24
996.979	0.84
997.405	2.04
997.83	-5.26
998.256	-3.46
998.682	-0.26
999.108	-9.66
999.534	1.24
999.959	-1.76
1000.385	-2.16
1000.811	3.64
1001.236	-5.76
1001.662	-6.86
1002.087	-9.66
1002.513	3.54
1002.938	3.64
1003.364	3.34
1003.789	-4.76
1004.215	1.24
1004.64	3.94
1005.066	-0.76
1005.491	-2.46
1005.916	-2.46
1006.342	-4.56
1006.767	-4.66
1007.192	3.84
1007.617	-3.66
1008.042	1.04
1008.468	-10.56
1008.893	1.54
1009.318	-3.36
1009.743	-1.06
1010.168	3.24
1010.593	5.24
1011.018	-10.86
1011.443	0.34
1011.868	5.04
1012.293	-3.06
1012.718	-1.26
1013.143	-0.26
1013.567	2.74
1013.992	0.04
1014.417	-8.26
1014.842	3.04
1015.267	-7.96
1015.691	0.54
1016.116	12.74
1016.541	0.24
1016.965	5.14
1017.39	6.94
1017.814	-4.66
1018.239	-1.76
1018.663	-4.96
1019.088	-8.26
1019.512	-1.26
1019.937	-4.46
1020.361	-0.36
1020.785	-15.06
1021.21	-3.86
1021.634	-2.66
1022.058	-2.26
1022.483	3.64
1022.907	1.14
1023.331	1.04
1023.755	1.04
1024.179	1.14
1024.604	-5.66
1025.028	-10.46
1025.452	-8.46
1025.876	-2.56
1026.3	3.04
1026.724	-11.16
1027.148	-3.96
1027.572	-8.86
1027.996	-5.06
1028.42	-0.66
1028.843	1.04
1029.267	-7.26
1029.691	-5.06
1030.115	-3.76
1030.539	-6.16
1030.962	-5.06
1031.386	-7.26
1031.81	0.74
1032.233	0.44
1032.657	3.04
1033.08	-6.36
1033.504	1.14
1033.927	1.14
1034.351	-4.36
1034.774	-4.16
1035.198	-2.06
1035.621	-5.76
1036.045	-7.46
1036.468	2.04
1036.891	-8.16
1037.315	-8.86
1037.738	-10.56
1038.161	-1.36
1038.584	-1.76
1039.008	-6.86
1039.431	1.54
1039.854	-10.06
1040.277	-8.46
1040.7	-10.56
1041.123	0.54
1041.546	-2.16
1041.969	-5.56
1042.392	-6.46
1042.815	-5.76
1043.238	4.54
1043.661	3.04
1044.084	-5.76
1044.507	-4.46
1044.93	-1.56
1045.352	-6.26
1045.775	-4.96
1046.198	-4.36
1046.621	-2.96
1047.043	-2.06
1047.466	7.74
1047.889	-1.66
1048.311	1.24
1048.734	-3.16
1049.156	-4.76
1049.579	-7.76
1050.001	1.24
1050.424	-1.86
1050.846	-4.36
1051.269	-1.96
1051.691	-2.26
1052.113	-5.26
1052.536	0.24
1052.958	-3.16
1053.38	-5.76
1053.802	-1.96
1054.225	4.54
1054.647	-2.36
1055.069	-4.46
1055.491	-1.96
1055.913	-12.36
1056.335	-2.06
1056.757	0.84
1057.179	-1.26
1057.601	-2.16
1058.023	-5.96
1058.445	-5.06
1058.867	-7.96
1059.289	-3.26
1059.711	-6.96
1060.133	-6.06
1060.555	-4.96
1060.976	-8.36
1061.398	-1.66
1061.82	-7.36
1062.241	-7.96
1062.663	-14.56
1063.085	-3.56
1063.506	-6.26
1063.928	-3.16
1064.35	-1.56
1064.771	-9.16
1065.193	-5.56
1065.614	-6.36
1066.035	-2.36
1066.457	-2.36
1066.878	2.14
1067.3	-2.96
1067.721	-2.66
1068.142	-0.36
1068.564	-2.56
1068.985	-5.26
1069.406	1.84
1069.827	-3.56
1070.248	0.34
1070.67	-8.06
1071.091	-2.56
1071.512	-1.86
1071.933	-4.06
1072.354	-9.86
1072.775	-8.66
1073.196	-8.06
1073.617	-0.36
1074.038	-0.86
1074.459	-0.06
1074.88	-5.66
1075.3	-2.06
1075.721	-3.86
1076.142	-1.06
1076.563	-0.76
1076.983	-2.66
1077.404	-3.26
1077.825	-7.66
1078.246	-1.36
1078.666	-11.96
1079.087	0.74
1079.507	-9.76
1079.928	-3.46
1080.348	0.14
1080.769	-8.06
1081.189	2.34
1081.61	-1.46
1082.03	-1.06
1082.451	-1.06
1082.871	2.84
1083.291	-5.16
1083.711	-8.36
1084.132	-3.06
1084.552	1.14
1084.972	-2.56
1085.392	-11.46
1085.813	-5.26
1086.233	-6.66
1086.653	-6.66
1087.073	-4.56
1087.493	-9.16
1087.913	-2.66
1088.333	-8.16
1088.753	-1.16
1089.173	-1.86
1089.593	-2.26
1090.013	-4.06
1090.433	3.94
1090.852	-3.46
1091.272	-0.06
1091.692	-2.96
1092.112	-4.76
1092.531	-3.86
1092.951	-11.36
1093.371	-2.26
1093.79	4.74
1094.21	-2.36
1094.63	-6.26
1095.049	-4.76
1095.469	-2.06
1095.888	1.54
1096.308	5.04
1096.727	2.34
1097.146	-4.66
1097.566	2.44
1097.985	-1.06
1098.405	1.14
1098.824	-3.56
1099.243	-4.66
1099.662	-2.36
1100.082	-3.96
1100.501	-1.36
1100.92	-7.36
1101.339	-7.96
1101.758	-6.06
