Data from 20171114-ORNL-Ar_H_NY_Subt18_08-08-32-308.txt Node
Date: Tue Nov 14 08:08:32 EST 2017
User: Ender
Spectrometer: HR+D1039
Trigger mode: 0
Integration Time (sec): 2.730000E-2
Scans to average: 10
Electric dark correction enabled: true
Nonlinearity correction enabled: false
Boxcar width: 0
XAxis mode: Wavelengths
Number of Pixels in Spectrum: 2048
>>>>>Begin Spectral Data<<<<<
187.836	-1.25
188.309	-1.25
188.782	-1.25
189.255	-5.85
189.728	-2.65
190.201	2.65
190.674	0.85
191.147	-1.55
191.619	-5.85
192.092	5.35
192.565	-1.25
193.038	4.55
193.511	0.25
193.984	7.95
194.456	1.45
194.929	1.35
195.402	-4.65
195.874	-1.35
196.347	6.25
196.82	-6.25
197.292	-2.55
197.765	-5.95
198.237	-5.15
198.71	-2.35
199.182	-4.35
199.655	-0.15
200.127	1.95
200.6	0.75
201.072	-3.95
201.544	-1.55
202.017	-5.75
202.489	4.45
202.961	-3.85
203.433	0.15
203.906	-10.35
204.378	-7.55
204.85	-8.45
205.322	-8.25
205.794	-4.85
206.266	-6.55
206.739	-4.75
207.211	5.35
207.683	-5.35
208.155	-3.35
208.627	-7.65
209.099	-6.75
209.57	-9.45
210.042	-6.55
210.514	-1.55
210.986	-4.95
211.458	-7.55
211.93	-7.55
212.402	-0.85
212.873	-11.15
213.345	-4.95
213.817	-7.05
214.288	-2.55
214.76	-10.05
215.232	0.55
215.703	2.05
216.175	-3.95
216.646	4.65
217.118	-5.25
217.589	0.35
218.061	0.35
218.532	-1.45
219.004	-5.85
219.475	-2.75
219.946	-7.35
220.418	-5.25
220.889	1.35
221.36	0.25
221.832	-1.55
222.303	-6.75
222.774	-0.35
223.245	-10.15
223.717	-4.15
224.188	-2.35
224.659	-4.95
225.13	-1.15
225.601	0.95
226.072	-0.05
226.543	-3.75
227.014	6.95
227.485	-3.55
227.956	-0.75
228.427	2.95
228.898	-1.85
229.369	4.35
229.839	-1.65
230.31	-6.25
230.781	1.95
231.252	-0.85
231.722	-5.05
232.193	-4.45
232.664	-3.15
233.135	-3.25
233.605	-0.75
234.076	-9.75
234.546	-4.95
235.017	6.05
235.487	-1.95
235.958	-8.45
236.428	-1.55
236.899	-3.15
237.369	-3.85
237.84	-9.25
238.31	6.15
238.78	1.35
239.251	-5.15
239.721	-3.05
240.191	-6.75
240.662	0.95
241.132	-2.65
241.602	-2.45
242.072	0.65
242.542	6.85
243.013	-5.25
243.483	3.05
243.953	1.75
244.423	-3.85
244.893	-7.95
245.363	2.25
245.833	1.15
246.303	0.75
246.773	7.15
247.243	-2.55
247.712	-3.75
248.182	9.85
248.652	0.75
249.122	-7.85
249.592	-5.35
250.061	4.75
250.531	13.85
251.001	-5.55
251.471	10.65
251.94	4.05
252.41	-2.25
252.879	-7.45
253.349	11.05
253.818	4.35
254.288	0.05
254.757	-1.45
255.227	3.45
255.696	-0.75
256.166	7.35
256.635	8.85
257.105	-1.75
257.574	-2.15
258.043	-1.75
258.513	-1.45
258.982	3.15
259.451	-0.95
259.92	7.95
260.389	3.95
260.859	16.15
261.328	4.85
261.797	6.05
262.266	-1.65
262.735	8.35
263.204	-1.75
263.673	-1.75
264.142	3.75
264.611	-4.25
265.08	-2.65
265.549	-4.35
266.018	3.65
266.487	-0.95
266.955	-3.25
267.424	-2.55
267.893	9.75
268.362	-3.65
268.83	0.25
269.299	14.05
269.768	1.25
270.236	5.65
270.705	0.65
271.174	3.15
271.642	-8.05
272.111	3.15
272.579	7.05
273.048	4.75
273.516	5.55
273.985	8.35
274.453	13.45
274.922	7.45
275.39	8.85
275.858	1.45
276.327	9.85
276.795	18.35
277.263	3.85
277.731	10.95
278.2	11.35
278.668	12.95
279.136	11.35
279.604	6.15
280.072	9.45
280.54	9.95
281.008	9.95
281.477	16.55
281.945	9.85
282.413	10.95
282.881	8.75
283.348	0.85
283.816	15.55
284.284	11.65
284.752	19.65
285.22	13.05
285.688	5.25
286.156	10.15
286.623	19.15
287.091	8.35
287.559	15.75
288.026	13.05
288.494	17.05
288.962	9.85
289.429	12.45
289.897	11.55
290.364	9.95
290.832	12.65
291.3	16.35
291.767	19.45
292.234	20.95
292.702	11.95
293.169	18.85
293.637	19.75
294.104	17.85
294.571	9.25
295.039	15.35
295.506	11.45
295.973	11.65
296.44	10.95
296.908	16.15
297.375	14.05
297.842	14.05
298.309	14.05
298.776	10.15
299.243	21.35
299.71	14.55
300.177	23.85
300.644	23.45
301.111	23.25
301.578	25.35
302.045	15.55
302.512	23.95
302.979	26.75
303.446	21.45
303.913	11.85
304.379	18.75
304.846	30.35
305.313	21.75
305.78	14.75
306.246	20.85
306.713	27.35
307.18	21.85
307.646	24.75
308.113	25.65
308.579	21.95
309.046	27.75
309.512	23.75
309.979	20.55
310.445	28.45
310.912	25.05
311.378	32.25
311.845	25.85
312.311	29.55
312.777	28.95
313.244	31.75
313.71	33.75
314.176	29.05
314.642	30.95
315.109	26.15
315.575	32.05
316.041	35.55
316.507	29.95
316.973	27.75
317.439	33.25
317.905	37.65
318.371	32.75
318.837	32.45
319.303	29.95
319.769	33.25
320.235	28.05
320.701	31.05
321.167	36.25
321.633	30.45
322.099	29.95
322.564	42.45
323.03	36.25
323.496	36.85
323.962	36.55
324.427	34.35
324.893	39.75
325.359	39.45
325.824	39.65
326.29	36.95
326.755	36.75
327.221	34.25
327.686	37.65
328.152	45.75
328.617	40.65
329.083	45.15
329.548	46.05
330.014	48.35
330.479	34.15
330.944	44.95
331.41	41.95
331.875	48.75
332.34	41.05
332.805	43.65
333.271	47.55
333.736	36.25
334.201	50.25
334.666	47.35
335.131	50.55
335.596	46.55
336.061	52.45
336.526	44.15
336.991	47.85
337.456	50.05
337.921	48.85
338.386	44.95
338.851	46.95
339.316	49.45
339.781	44.95
340.246	49.55
340.711	44.25
341.175	47.95
341.64	49.65
342.105	48.65
342.569	59.25
343.034	54.45
343.499	50.45
343.963	52.65
344.428	67.35
344.893	62.35
345.357	61.05
345.822	61.05
346.286	63.25
346.751	71.85
347.215	64.95
347.679	75.35
348.144	94.55
348.608	91.15
349.073	70.15
349.537	81.15
350.001	76.35
350.465	92.35
350.93	85.15
351.394	82.95
351.858	67.15
352.322	81.45
352.786	85.25
353.25	97.15
353.715	104.55
354.179	98.95
354.643	119.15
355.107	123.15
355.571	97.85
356.035	106.35
356.498	113.95
356.962	123.45
357.426	123.95
357.89	117.15
358.354	92.15
358.818	82.75
359.281	79.15
359.745	67.65
360.209	73.85
360.673	73.65
361.136	75.25
361.6	85.35
362.064	79.15
362.527	83.25
362.991	87.85
363.454	74.05
363.918	75.85
364.381	81.45
364.845	82.15
365.308	93.05
365.772	83.95
366.235	87.45
366.698	77.35
367.162	87.75
367.625	87.45
368.088	90.35
368.552	93.05
369.015	88.75
369.478	99.85
369.941	93.95
370.404	95.95
370.867	101.15
371.331	109.85
371.794	120.85
372.257	98.05
372.72	112.55
373.183	105.45
373.646	91.05
374.109	100.95
374.572	106.25
375.035	106.95
375.497	108.15
375.96	105.55
376.423	106.75
376.886	119.75
377.349	115.75
377.811	99.05
378.274	105.45
378.737	102.25
379.199	106.95
379.662	111.45
380.125	113.65
380.587	109.05
381.05	108.25
381.512	118.15
381.975	127.25
382.437	115.05
382.9	118.45
383.362	126.05
383.825	134.75
384.287	133.65
384.75	124.45
385.212	128.65
385.674	136.35
386.136	138.45
386.599	130.75
387.061	129.35
387.523	123.65
387.985	135.75
388.447	144.25
388.91	127.95
389.372	139.45
389.834	134.85
390.296	127.35
390.758	134.75
391.22	141.25
391.682	150.05
392.144	166.55
392.606	150.55
393.068	153.45
393.529	159.45
393.991	145.35
394.453	139.65
394.915	134.15
395.377	142.15
395.838	143.65
396.3	143.05
396.762	151.15
397.224	136.25
397.685	144.95
398.147	135.95
398.608	138.95
399.07	138.65
399.531	145.85
399.993	158.35
400.454	158.45
400.916	155.55
401.377	157.35
401.839	159.75
402.3	165.55
402.762	175.35
403.223	183.25
403.684	173.25
404.145	165.25
404.607	168.15
405.068	169.75
405.529	180.75
405.99	195.45
406.451	185.35
406.913	176.75
407.374	170.95
407.835	168.85
408.296	176.05
408.757	179.85
409.218	195.55
409.679	193.25
410.14	179.55
410.601	179.75
411.062	190.65
411.522	190.05
411.983	187.95
412.444	184.85
412.905	190.35
413.366	192.65
413.826	208.05
414.287	239.65
414.748	275.15
415.208	277.55
415.669	234.85
416.13	221.25
416.59	222.85
417.051	236.85
417.511	239.25
417.972	255.35
418.432	263.95
418.893	309.95
419.353	271.75
419.814	216.45
420.274	194.85
420.734	195.45
421.195	208.65
421.655	204.35
422.115	203.05
422.576	214.45
423.036	211.75
423.496	228.95
423.956	236.25
424.416	252.35
424.876	287.75
425.336	268.95
425.797	282.15
426.257	278.35
426.717	263.75
427.177	240.25
427.637	240.25
428.097	251.55
428.556	260.05
429.016	286.75
429.476	275.05
429.936	286.75
430.396	291.45
430.856	306.15
431.315	323.15
431.775	371.85
432.235	402.35
432.694	371.45
433.154	379.65
433.614	408.75
434.073	359.25
434.533	295.95
434.993	283.05
435.452	296.85
435.912	314.95
436.371	302.25
436.83	292.95
437.29	274.65
437.749	263.55
438.209	273.75
438.668	290.95
439.127	311.75
439.587	286.85
440.046	262.45
440.505	272.15
440.964	297.35
441.424	345.85
441.883	327.75
442.342	275.55
442.801	240.15
443.26	247.45
443.719	247.05
444.178	239.75
444.637	237.95
445.096	238.75
445.555	244.15
446.014	247.95
446.473	250.65
446.932	254.95
447.391	242.75
447.849	248.95
448.308	233.25
448.767	241.85
449.226	253.25
449.685	252.65
450.143	267.95
450.602	260.35
451.061	250.15
451.519	247.35
451.978	254.95
452.436	252.55
452.895	260.35
453.353	269.25
453.812	256.65
454.27	264.15
454.729	260.55
455.187	261.95
455.646	261.45
456.104	270.55
456.562	289.95
457.021	293.85
457.479	290.45
457.937	297.85
458.395	288.65
458.854	265.95
459.312	278.75
459.77	301.35
460.228	279.55
460.686	269.25
461.144	272.15
461.602	266.45
462.06	264.05
462.518	272.75
462.976	274.35
463.434	285.55
463.892	293.85
464.35	295.75
464.808	313.45
465.266	291.05
465.724	291.85
466.181	286.85
466.639	299.75
467.097	306.15
467.555	327.45
468.012	331.35
468.47	338.25
468.928	359.65
469.385	366.35
469.843	373.25
470.3	383.55
470.758	396.35
471.215	415.35
471.673	437.15
472.13	434.35
472.588	453.15
473.045	402.75
473.503	407.05
473.96	429.45
474.417	444.45
474.875	469.75
475.332	504.85
475.789	502.05
476.246	491.95
476.704	520.55
477.161	542.85
477.618	558.45
478.075	597.75
478.532	641.95
478.989	722.65
479.446	836.65
479.903	794.95
480.36	832.45
480.817	883.85
481.274	970.35
481.731	1073.55
482.188	1149.45
482.645	1263.75
483.102	1360.65
483.558	1495.45
484.015	1528.35
484.472	1495.05
484.929	1450.55
485.385	1407.45
485.842	1379.45
486.299	1335.55
486.755	1289.45
487.212	1110.85
487.668	943.25
488.125	870.65
488.582	801.75
489.038	771.35
489.494	748.05
489.951	719.75
490.407	703.15
490.864	681.55
491.32	678.75
491.776	686.85
492.233	680.55
492.689	644.15
493.145	649.35
493.602	645.05
494.058	651.45
494.514	654.55
494.97	679.25
495.426	700.15
495.882	656.25
496.338	651.35
496.794	649.65
497.251	643.85
497.707	662.95
498.163	682.05
498.618	680.95
499.074	683.45
499.53	698.55
499.986	711.65
500.442	681.25
500.898	657.65
501.354	655.25
501.809	654.55
502.265	662.55
502.721	664.45
503.177	668.55
503.632	694.35
504.088	687.45
504.543	719.75
504.999	734.15
505.455	697.15
505.91	670.25
506.366	674.95
506.821	673.25
507.277	679.45
507.732	669.15
508.187	679.65
508.643	684.85
509.098	678.45
509.553	700.15
510.009	712.05
510.464	709.75
510.919	746.05
511.375	744.85
511.83	759.35
512.285	773.55
512.74	804.75
513.195	820.15
513.65	809.55
514.105	812.95
514.56	809.65
515.015	841.05
515.47	836.15
515.925	825.15
516.38	829.45
516.835	836.75
517.29	817.85
517.745	816.25
518.2	821.35
518.655	801.85
519.109	790.55
519.564	782.05
520.019	782.15
520.474	779.75
520.928	764.55
521.383	762.25
521.838	749.25
522.292	741.75
522.747	746.15
523.201	752.75
523.656	736.25
524.11	744.25
524.565	729.85
525.019	742.05
525.474	736.75
525.928	741.65
526.382	739.55
526.837	747.05
527.291	752.45
527.745	746.45
528.2	743.45
528.654	747.15
529.108	730.85
529.562	735.15
530.016	733.45
530.47	734.75
530.925	739.05
531.379	738.95
531.833	735.65
532.287	750.15
532.741	738.85
533.195	747.75
533.649	756.45
534.103	757.45
534.556	745.85
535.01	753.35
535.464	747.25
535.918	756.35
536.372	765.05
536.826	752.05
537.279	746.65
537.733	754.45
538.187	758.95
538.64	750.65
539.094	761.15
539.548	765.05
540.001	762.05
540.455	765.85
540.908	772.25
541.362	787.35
541.815	792.95
542.269	796.75
542.722	807.25
543.175	816.45
543.629	811.75
544.082	829.55
544.536	832.95
544.989	824.15
545.442	841.55
545.895	840.35
546.349	836.05
546.802	851.05
547.255	851.25
547.708	867.25
548.161	874.55
548.614	867.85
549.067	867.45
549.52	873.85
549.973	863.65
550.426	860.95
550.879	860.45
551.332	859.75
551.785	848.95
552.238	861.05
552.691	873.65
553.144	889.05
553.596	903.35
554.049	905.75
554.502	966.75
554.955	970.25
555.407	961.65
555.86	953.75
556.313	939.25
556.765	935.85
557.218	939.05
557.67	937.85
558.123	925.05
558.576	930.15
559.028	930.55
559.48	931.65
559.933	935.85
560.385	902.25
560.838	859.25
561.29	836.45
561.742	830.65
562.195	814.45
562.647	818.95
563.099	830.85
563.551	818.25
564.004	829.05
564.456	807.25
564.908	802.05
565.36	784.65
565.812	775.35
566.264	762.55
566.716	767.25
567.168	745.95
567.62	758.65
568.072	744.35
568.524	743.95
568.976	728.95
569.428	713.75
569.88	724.95
570.332	727.25
570.784	735.85
571.235	737.45
571.687	757.75
572.139	758.15
572.59	752.05
573.042	762.55
573.494	757.05
573.945	751.45
574.397	727.45
574.849	733.35
575.3	728.55
575.752	723.95
576.203	728.45
576.655	731.55
577.106	718.05
577.557	708.95
578.009	701.25
578.46	706.25
578.912	713.25
579.363	718.75
579.814	713.55
580.265	707.95
580.717	708.95
581.168	709.65
581.619	713.25
582.07	722.45
582.521	713.55
582.972	705.85
583.423	719.35
583.875	722.45
584.326	716.85
584.777	743.15
585.227	772.55
585.678	780.85
586.129	808.25
586.58	829.95
587.031	855.15
587.482	891.25
587.933	921.35
588.384	887.15
588.834	835.75
589.285	813.55
589.736	822.25
590.186	814.05
590.637	806.45
591.088	781.85
591.538	788.95
591.989	782.35
592.439	767.15
592.89	758.85
593.34	742.75
593.791	753.15
594.241	740.15
594.692	745.55
595.142	729.45
595.593	728.35
596.043	737.75
596.493	751.65
596.943	741.85
597.394	766.85
597.844	768.85
598.294	781.25
598.744	810.35
599.195	833.85
599.645	874.05
600.095	914.05
600.545	991.25
600.995	1028.45
601.445	1076.55
601.895	1153.75
602.345	1208.55
602.795	1178.25
603.245	1142.35
603.695	1076.25
604.145	1012.75
604.594	980.65
605.044	921.75
605.494	861.35
605.944	810.85
606.393	799.55
606.843	774.85
607.293	787.15
607.743	775.05
608.192	788.15
608.642	791.25
609.091	799.75
609.541	805.15
609.99	800.55
610.44	804.25
610.889	758.25
611.339	740.95
611.788	723.35
612.238	736.05
612.687	737.75
613.136	741.75
613.586	741.25
614.035	740.05
614.484	750.65
614.933	747.55
615.383	746.85
615.832	748.45
616.281	745.15
616.73	708.55
617.179	699.35
617.628	682.65
618.077	668.15
618.526	665.65
618.975	654.25
619.424	652.15
619.873	657.75
620.322	644.55
620.771	642.65
621.22	650.25
621.669	624.05
622.118	614.95
622.567	613.85
623.015	601.95
623.464	609.45
623.913	590.95
624.361	572.15
624.81	581.95
625.259	590.75
625.707	589.85
626.156	591.35
626.604	604.55
627.053	597.55
627.501	599.45
627.95	598.45
628.398	621.65
628.847	604.65
629.295	609.45
629.744	605.35
630.192	600.25
630.64	600.95
631.089	581.95
631.537	570.25
631.985	554.45
632.433	565.95
632.881	554.75
633.33	558.45
633.778	560.05
634.226	569.85
634.674	575.05
635.122	575.75
635.57	594.95
636.018	605.45
636.466	602.15
636.914	588.55
637.362	602.25
637.81	614.15
638.258	614.15
638.705	607.75
639.153	649.95
639.601	664.95
640.049	677.15
640.497	715.45
640.944	733.95
641.392	680.35
641.84	640.75
642.287	622.75
642.735	598.55
643.182	597.85
643.63	606.55
644.078	599.85
644.525	612.55
644.973	612.05
645.42	622.75
645.867	637.05
646.315	664.55
646.762	693.85
647.21	724.75
647.657	739.05
648.104	770.45
648.551	792.75
648.999	859.65
649.446	928.75
649.893	1017.85
650.34	1176.35
650.787	1390.75
651.234	1710.65
651.682	2213.55
652.129	3000.65
652.576	4243.15
653.023	6196.25
653.47	8318.35
653.917	10285.65
654.363	11811.25
654.81	12984.65
655.257	12287.45
655.704	8158.35
656.151	4940.75
656.598	3246.95
657.044	2317.85
657.491	1815.95
657.938	1472.95
658.385	1237.35
658.831	1080.55
659.278	979.45
659.724	876.65
660.171	810.05
660.618	732.35
661.064	709.55
661.511	691.25
661.957	676.25
662.404	674.05
662.85	677.35
663.296	663.45
663.743	595.55
664.189	565.85
664.635	561.75
665.082	551.75
665.528	559.95
665.974	549.55
666.42	537.85
666.867	534.45
667.313	515.95
667.759	497.55
668.205	476.65
668.651	480.35
669.097	472.75
669.543	466.55
669.989	478.05
670.435	482.85
670.881	478.05
671.327	474.85
671.773	498.65
672.219	523.85
672.665	580.65
673.11	635.45
673.556	667.05
674.002	707.55
674.448	704.15
674.893	593.75
675.339	508.65
675.785	472.95
676.23	459.45
676.676	419.45
677.122	413.15
677.567	409.65
678.013	401.05
678.458	388.35
678.904	385.15
679.349	377.15
679.794	381.55
680.24	373.75
680.685	373.25
681.131	369.95
681.576	379.35
682.021	376.35
682.466	380.85
682.912	370.85
683.357	386.45
683.802	416.15
684.247	444.75
684.692	496.15
685.137	528.25
685.583	573.65
686.028	602.35
686.473	560.85
686.918	475.95
687.363	441.75
687.807	424.35
688.252	393.65
688.697	382.75
689.142	362.45
689.587	353.95
690.032	344.65
690.477	372.85
690.921	376.65
691.366	407.25
691.811	433.15
692.255	457.75
692.7	498.35
693.145	552.35
693.589	766.75
694.034	1243.45
694.478	1663.05
694.923	1836.75
695.367	2391.05
695.812	1279.95
696.256	537.35
696.701	399.15
697.145	369.95
697.59	344.85
698.034	337.85
698.478	346.25
698.922	342.05
699.367	337.45
699.811	366.75
700.255	372.25
700.699	413.95
701.143	452.35
701.588	503.45
702.032	548.05
702.476	547.25
702.92	525.75
703.364	537.25
703.808	704.45
704.252	1150.85
704.696	1581.45
705.14	1790.55
705.584	2271.25
706.027	1143.75
706.471	561.25
706.915	429.15
707.359	374.45
707.803	343.05
708.246	336.65
708.69	337.55
709.134	340.15
709.577	327.85
710.021	340.95
710.465	331.05
710.908	324.35
711.352	313.45
711.795	336.25
712.239	382.95
712.682	419.25
713.126	438.15
713.569	476.65
714.012	377.95
714.456	329.65
714.899	305.75
715.342	294.35
715.786	277.35
716.229	271.85
716.672	271.55
717.115	271.25
717.558	267.85
718.002	267.65
718.445	286.35
718.888	304.25
719.331	316.35
719.774	328.25
720.217	323.55
720.66	311.75
721.103	286.85
721.546	281.85
721.989	264.05
722.432	251.55
722.874	253.15
723.317	244.25
723.76	250.45
724.203	274.15
724.645	347.75
725.088	477.75
725.531	618.55
725.974	682.55
726.416	592.35
726.859	333.75
727.301	266.05
727.744	255.15
728.187	253.25
728.629	262.35
729.071	260.65
729.514	277.45
729.956	299.55
730.399	307.95
730.841	305.65
731.283	294.35
731.726	285.95
732.168	281.65
732.61	285.65
733.053	304.35
733.495	342.45
733.937	383.75
734.379	428.25
734.821	473.25
735.263	607.15
735.705	932.45
736.148	1755.65
736.59	2839.45
737.032	3231.55
737.474	2650.65
737.916	877.35
738.357	462.45
738.799	358.25
739.241	324.05
739.683	311.75
740.125	315.05
740.567	311.65
741.008	345.25
741.45	339.95
741.892	342.25
742.334	377.95
742.775	392.75
743.217	367.95
743.658	296.05
744.1	276.65
744.542	283.75
744.983	341.85
745.425	370.05
745.866	369.25
746.307	308.65
746.749	301.05
747.19	350.55
747.632	509.85
748.073	992.75
748.514	2065.55
748.956	3074.15
749.397	3883.05
749.838	3210.85
750.279	3136.55
750.72	1594.45
751.162	599.45
751.603	347.45
752.044	275.55
752.485	236.85
752.926	221.75
753.367	222.45
753.808	216.35
754.249	206.15
754.69	199.75
755.131	200.65
755.572	197.35
756.013	193.85
756.453	195.05
756.894	203.15
757.335	206.05
757.776	204.35
758.216	206.65
758.657	210.65
759.098	223.35
759.538	250.35
759.979	293.05
760.42	418.15
760.86	803.15
761.301	2053.65
761.741	4886.45
762.182	6793.85
762.622	4819.05
763.063	1419.95
763.503	584.35
763.943	354.75
764.384	294.05
764.824	271.95
765.264	264.85
765.705	225.35
766.145	205.15
766.585	193.55
767.025	180.55
767.465	171.75
767.906	199.15
768.346	216.85
768.786	230.25
769.226	238.15
769.666	331.15
770.106	692.85
770.546	1734.35
770.986	2803.25
771.426	2489.45
771.866	858.75
772.306	356.95
772.745	226.65
773.185	187.15
773.625	177.05
774.065	168.05
774.505	170.65
774.944	228.95
775.384	396.35
775.824	637.45
776.263	605.45
776.703	302.95
777.142	168.75
777.582	146.85
778.021	133.45
778.461	132.25
778.9	134.55
779.34	133.45
779.779	129.85
780.219	113.05
780.658	118.15
781.097	120.55
781.537	117.25
781.976	114.35
782.415	112.65
782.855	108.95
783.294	106.75
783.733	112.65
784.172	116.65
784.611	115.55
785.05	117.45
785.489	120.45
785.928	126.45
786.367	127.05
786.806	124.45
787.245	134.65
787.684	145.65
788.123	159.95
788.562	147.25
789.001	135.25
789.44	127.85
789.879	127.65
790.317	124.85
790.756	139.25
791.195	135.05
791.634	155.35
792.072	214.35
792.511	415.65
792.95	1116.25
793.388	2264.15
793.827	2007.55
794.265	722.65
794.704	304.85
795.142	194.45
795.581	160.45
796.019	150.55
796.458	137.05
796.896	134.15
797.334	144.15
797.773	177.65
798.211	241.55
798.649	484.65
799.087	1112.15
799.526	1752.75
799.964	2182.45
800.402	2133.25
800.84	818.45
801.278	320.05
801.716	204.55
802.154	161.75
802.592	165.85
803.03	150.15
803.468	142.05
803.906	151.85
804.344	155.75
804.782	149.85
805.22	144.95
805.658	143.95
806.096	167.25
806.533	175.25
806.971	191.55
807.409	237.35
807.847	351.55
808.284	740.45
808.722	2056.95
809.16	3517.35
809.597	3457.75
810.035	5861.45
810.472	6061.45
810.91	2234.25
811.347	864.05
811.785	446.15
812.222	286.15
812.66	215.05
813.097	178.35
813.535	158.45
813.972	140.55
814.409	127.65
814.846	118.65
815.284	119.55
815.721	107.85
816.158	115.35
816.595	119.55
817.032	163.65
817.47	202.55
817.907	131.85
818.344	106.95
818.781	104.55
819.218	103.25
819.655	135.15
820.092	207.45
820.529	229.15
820.966	180.35
821.403	143.35
821.839	108.75
822.276	106.65
822.713	128.05
823.15	143.05
823.587	124.75
824.023	166.45
824.46	341.05
824.897	982.85
825.333	1424.45
825.77	614.65
826.206	256.25
826.643	139.25
827.08	104.95
827.516	94.15
827.953	89.85
828.389	85.65
828.825	78.25
829.262	81.85
829.698	75.45
830.135	66.95
830.571	68.75
831.007	66.25
831.443	68.05
831.88	68.85
832.316	61.25
832.752	64.75
833.188	71.15
833.624	71.95
834.06	79.05
834.497	74.35
834.933	78.55
835.369	81.25
835.805	72.35
836.241	79.05
836.677	85.65
837.112	100.35
837.548	116.25
837.984	146.15
838.42	224.85
838.856	560.35
839.292	1673.05
839.727	2443.75
840.163	1155.15
840.599	1031.35
841.034	2218.25
841.47	2236.25
841.906	841.35
842.341	358.55
842.777	215.45
843.212	217.45
843.648	199.45
844.083	121.45
844.519	95.95
844.954	73.75
845.39	66.65
845.825	61.95
846.261	64.05
846.696	58.45
847.131	56.25
847.566	62.35
848.002	58.25
848.437	56.25
848.872	71.35
849.307	71.95
849.742	95.15
850.177	200.85
850.613	613.85
851.048	933.65
851.483	404.85
851.918	170.95
852.353	92.75
852.788	63.75
853.223	54.25
853.657	57.75
854.092	48.15
854.527	49.35
854.962	45.05
855.397	55.75
855.832	51.25
856.266	47.35
856.701	46.05
857.136	43.25
857.57	48.15
858.005	60.35
858.44	67.85
858.874	51.55
859.309	59.25
859.743	36.55
860.178	52.65
860.612	49.55
861.047	59.85
861.481	70.25
861.915	78.25
862.35	54.25
862.784	35.95
863.218	40.25
863.653	38.75
864.087	47.55
864.521	55.55
864.955	72.35
865.39	166.45
865.824	186.65
866.258	133.95
866.692	177.45
867.126	198.05
867.56	115.55
867.994	59.15
868.428	43.25
868.862	50.25
869.296	65.55
869.73	63.55
870.164	58.05
870.598	47.15
871.031	42.55
871.465	37.75
871.899	30.55
872.333	24.25
872.766	25.45
873.2	23.45
873.634	32.25
874.067	31.35
874.501	29.85
874.935	34.05
875.368	28.85
875.802	31.65
876.235	27.55
876.669	30.15
877.102	24.25
877.535	30.95
877.969	28.15
878.402	21.25
878.836	22.35
879.269	22.35
879.702	30.25
880.135	21.55
880.569	19.05
881.002	29.25
881.435	24.15
881.868	21.65
882.301	21.75
882.734	18.35
883.167	19.35
883.601	20.05
884.034	22.55
884.467	15.85
884.899	22.55
885.332	15.75
885.765	21.45
886.198	23.95
886.631	19.15
887.064	19.25
887.497	26.45
887.929	25.65
888.362	20.65
888.795	11.05
889.228	15.95
889.66	23.85
890.093	15.25
890.526	15.75
890.958	9.35
891.391	22.95
891.823	26.05
892.256	14.45
892.688	12.25
893.121	14.15
893.553	19.25
893.985	20.05
894.418	27.55
894.85	12.15
895.282	23.35
895.715	13.85
896.147	16.75
896.579	17.75
897.011	14.05
897.444	17.75
897.876	10.25
898.308	18.95
898.74	13.75
899.172	14.25
899.604	24.65
900.036	21.65
900.468	15.95
900.9	11.95
901.332	23.15
901.764	13.15
902.196	20.25
902.628	14.25
903.06	23.95
903.491	29.85
903.923	25.95
904.355	22.45
904.787	25.65
905.218	24.85
905.65	20.55
906.082	12.45
906.513	17.25
906.945	17.75
907.376	13.75
907.808	19.95
908.239	19.25
908.671	20.75
909.102	20.05
909.534	29.75
909.965	46.85
910.397	103.35
910.828	343.25
911.259	499.45
911.691	232.15
912.122	115.75
912.553	57.65
912.984	36.75
913.415	30.55
913.847	27.15
914.278	16.15
914.709	21.75
915.14	21.45
915.571	16.95
916.002	16.85
916.433	21.95
916.864	13.85
917.295	18.15
917.726	24.75
918.157	14.95
918.587	32.25
919.018	23.55
919.449	26.05
919.88	22.25
920.311	32.95
920.741	53.65
921.172	173.95
921.603	161.05
922.033	79.65
922.464	52.75
922.895	20.05
923.325	22.35
923.756	19.55
924.186	18.95
924.617	21.65
925.047	21.25
925.478	26.55
925.908	20.85
926.338	17.55
926.769	9.65
927.199	18.75
927.629	10.85
928.06	15.75
928.49	14.35
928.92	12.85
929.35	11.85
929.78	4.65
930.21	6.95
930.641	7.55
931.071	10.75
931.501	1.75
931.931	11.55
932.361	9.95
932.791	10.35
933.221	12.75
933.651	4.85
934.08	23.75
934.51	32.95
934.94	10.95
935.37	7.75
935.8	11.15
936.229	12.85
936.659	14.95
937.089	4.85
937.519	19.45
937.948	35.15
938.378	13.75
938.807	12.95
939.237	3.45
939.666	12.25
940.096	-5.25
940.525	1.75
940.955	4.95
941.384	1.35
941.814	-8.95
942.243	-1.85
942.672	7.95
943.102	-2.75
943.531	-3.55
943.96	-1.75
944.39	0.75
944.819	5.35
945.248	3.65
945.677	8.05
946.106	8.25
946.535	3.35
946.964	-1.25
947.393	2.95
947.822	1.95
948.251	-4.05
948.68	1.15
949.109	9.35
949.538	8.85
949.967	1.65
950.396	1.75
950.825	-0.55
951.254	-1.65
951.682	-4.65
952.111	3.65
952.54	5.45
952.969	-1.65
953.397	-6.35
953.826	0.55
954.254	-1.45
954.683	6.05
955.112	1.55
955.54	0.05
955.969	2.75
956.397	3.65
956.826	1.55
957.254	3.45
957.682	1.45
958.111	1.85
958.539	-2.65
958.967	3.95
959.396	1.25
959.824	-1.05
960.252	-2.55
960.68	-9.95
961.109	-4.65
961.537	-5.95
961.965	0.65
962.393	3.35
962.821	-7.35
963.249	4.25
963.677	9.15
964.105	4.65
964.533	46.85
964.961	49.65
965.389	15.65
965.817	10.65
966.245	5.45
966.672	4.25
967.1	-5.95
967.528	0.65
967.956	-3.15
968.383	-4.05
968.811	-5.35
969.239	-6.35
969.666	-4.15
970.094	3.15
970.522	1.35
970.949	0.85
971.377	-6.05
971.804	-5.85
972.232	-1.25
972.659	2.55
973.087	-4.15
973.514	-1.95
973.941	-4.45
974.369	5.25
974.796	3.15
975.223	1.15
975.651	3.65
976.078	3.45
976.505	1.55
976.932	8.05
977.359	14.95
977.786	18.95
978.214	0.35
978.641	-4.55
979.068	3.05
979.495	-3.95
979.922	-1.15
980.349	-4.55
980.776	3.25
981.202	-0.65
981.629	-0.35
982.056	0.45
982.483	-3.95
982.91	6.75
983.337	-2.45
983.763	-0.75
984.19	-2.15
984.617	-5.75
985.043	-4.75
985.47	0.25
985.897	0.55
986.323	-4.65
986.75	0.85
987.176	-0.15
987.603	1.15
988.029	-2.35
988.456	-1.75
988.882	7.75
989.308	-4.85
989.735	-4.55
990.161	-6.45
990.587	-6.45
991.014	-0.25
991.44	0.35
991.866	-7.15
992.292	-2.05
992.719	-6.15
993.145	3.05
993.571	-4.65
993.997	-4.85
994.423	1.65
994.849	-8.55
995.275	3.25
995.701	4.75
996.127	-3.75
996.553	5.55
996.979	1.05
997.405	3.85
997.83	-3.85
998.256	-8.65
998.682	-2.55
999.108	-6.75
999.534	-2.75
999.959	-1.15
1000.385	-0.45
1000.811	1.25
1001.236	-7.45
1001.662	-6.65
1002.087	-12.35
1002.513	-1.35
1002.938	2.35
1003.364	-1.75
1003.789	0.85
1004.215	7.75
1004.64	-1.95
1005.066	0.35
1005.491	0.95
1005.916	-0.25
1006.342	-1.65
1006.767	-8.15
1007.192	8.15
1007.617	-4.75
1008.042	3.35
1008.468	-9.95
1008.893	2.65
1009.318	-4.45
1009.743	-2.75
1010.168	7.15
1010.593	6.35
1011.018	-9.05
1011.443	-2.55
1011.868	3.15
1012.293	0.15
1012.718	-7.55
1013.143	-1.35
1013.567	1.35
1013.992	-4.35
1014.417	-14.55
1014.842	0.75
1015.267	-4.75
1015.691	-4.85
1016.116	1.95
1016.541	-0.85
1016.965	4.95
1017.39	3.25
1017.814	-1.45
1018.239	2.25
1018.663	-10.35
1019.088	-10.35
1019.512	-2.65
1019.937	-1.15
1020.361	-4.35
1020.785	-9.55
1021.21	-5.15
1021.634	0.15
1022.058	1.15
1022.483	1.45
1022.907	-2.35
1023.331	-9.55
1023.755	-2.35
1024.179	2.95
1024.604	-7.05
1025.028	-3.65
1025.452	-3.45
1025.876	-3.15
1026.3	3.35
1026.724	-10.15
1027.148	-0.45
1027.572	-13.35
1027.996	-0.35
1028.42	-3.55
1028.843	-7.15
1029.267	-9.55
1029.691	-3.15
1030.115	-7.95
1030.539	-12.55
1030.962	-1.15
1031.386	-8.75
1031.81	-2.35
1032.233	-2.05
1032.657	-2.25
1033.08	-4.25
1033.504	-4.35
1033.927	-2.25
1034.351	-0.85
1034.774	-5.65
1035.198	0.15
1035.621	-4.45
1036.045	-10.35
1036.468	5.85
1036.891	-3.75
1037.315	-6.85
1037.738	-8.65
1038.161	-1.45
1038.584	-3.65
1039.008	-8.95
1039.431	-1.45
1039.854	-2.65
1040.277	-5.25
1040.7	-19.15
1041.123	-1.05
1041.546	-5.95
1041.969	-5.25
1042.392	-7.65
1042.815	-2.55
1043.238	2.85
1043.661	-0.55
1044.084	-0.75
1044.507	-6.75
1044.93	-4.25
1045.352	-6.35
1045.775	-1.65
1046.198	-4.95
1046.621	1.85
1047.043	-0.55
1047.466	4.75
1047.889	-6.05
1048.311	-4.25
1048.734	-1.45
1049.156	-2.65
1049.579	-0.35
1050.001	3.75
1050.424	3.75
1050.846	-4.85
1051.269	-6.35
1051.691	-10.75
1052.113	-6.65
1052.536	0.55
1052.958	-3.25
1053.38	-3.65
1053.802	-4.45
1054.225	0.65
1054.647	-12.15
1055.069	-4.05
1055.491	6.05
1055.913	-3.75
1056.335	-3.75
1056.757	-5.05
1057.179	-3.05
1057.601	1.45
1058.023	2.15
1058.445	-9.25
1058.867	-5.85
1059.289	-3.45
1059.711	-11.15
1060.133	1.45
1060.555	-3.65
1060.976	-5.55
1061.398	-6.35
1061.82	-11.05
1062.241	-3.85
1062.663	-7.35
1063.085	-3.85
1063.506	-1.35
1063.928	-2.05
1064.35	3.35
1064.771	-11.05
1065.193	-2.85
1065.614	-10.15
1066.035	-6.65
1066.457	-8.15
1066.878	4.25
1067.3	-8.15
1067.721	-3.65
1068.142	-2.75
1068.564	-5.05
1068.985	-1.05
1069.406	-4.45
1069.827	-5.85
1070.248	-3.65
1070.67	-7.75
1071.091	-3.65
1071.512	-2.55
1071.933	-8.25
1072.354	-1.35
1072.775	-2.55
1073.196	-8.65
1073.617	-7.95
1074.038	-9.15
1074.459	-4.85
1074.88	-8.75
1075.3	6.05
1075.721	-4.45
1076.142	-1.05
1076.563	2.15
1076.983	-15.45
1077.404	-3.15
1077.825	-6.55
1078.246	1.25
1078.666	-12.55
1079.087	-5.75
1079.507	-6.95
1079.928	-0.65
1080.348	-2.75
1080.769	-6.35
1081.189	-0.05
1081.61	-5.35
1082.03	-2.05
1082.451	-2.25
1082.871	-2.45
1083.291	-10.95
1083.711	-3.75
1084.132	-4.05
1084.552	-6.55
1084.972	0.05
1085.392	-14.45
1085.813	-7.55
1086.233	-6.95
1086.653	-2.85
1087.073	-4.65
1087.493	-9.35
1087.913	-1.85
1088.333	-3.35
1088.753	3.25
1089.173	4.95
1089.593	-2.25
1090.013	0.95
1090.433	-0.95
1090.852	-9.45
1091.272	-2.95
1091.692	-2.55
1092.112	-5.35
1092.531	-3.85
1092.951	-8.05
1093.371	-2.35
1093.79	0.65
1094.21	-3.55
1094.63	-7.55
1095.049	0.05
1095.469	-1.85
1095.888	-2.25
1096.308	-0.45
1096.727	5.45
1097.146	-2.95
1097.566	1.25
1097.985	-5.95
1098.405	-1.05
1098.824	-2.85
1099.243	-6.85
1099.662	-7.85
1100.082	-4.55
1100.501	-0.05
1100.92	-2.95
1101.339	-5.95
1101.758	-5.45
