Data from 20171114-ORNL-Ar_H_NY_Subt18_08-05-25-048.txt Node
Date: Tue Nov 14 08:05:25 EST 2017
User: Ender
Spectrometer: HR+D1039
Trigger mode: 0
Integration Time (sec): 2.730000E-2
Scans to average: 10
Electric dark correction enabled: true
Nonlinearity correction enabled: false
Boxcar width: 0
XAxis mode: Wavelengths
Number of Pixels in Spectrum: 2048
>>>>>Begin Spectral Data<<<<<
187.836	1.26
188.309	1.26
188.782	1.26
189.255	1.46
189.728	2.76
190.201	4.86
190.674	-2.74
191.147	4.36
191.619	-9.64
192.092	-4.24
192.565	0.66
193.038	-4.24
193.511	4.26
193.984	2.26
194.456	0.66
194.929	0.16
195.402	0.56
195.874	-2.44
196.347	-0.94
196.82	-7.24
197.292	2.86
197.765	-4.24
198.237	-7.24
198.71	2.76
199.182	-0.34
199.655	-0.94
200.127	0.46
200.6	-0.34
201.072	-6.94
201.544	-9.84
202.017	-7.54
202.489	5.16
202.961	-0.44
203.433	0.56
203.906	-5.94
204.378	-7.44
204.85	-6.54
205.322	-8.94
205.794	-1.24
206.266	-3.84
206.739	-8.64
207.211	4.86
207.683	-14.64
208.155	-6.84
208.627	-3.54
209.099	-2.94
209.57	-4.14
210.042	-3.24
210.514	-5.44
210.986	1.26
211.458	-11.24
211.93	-1.24
212.402	1.26
212.873	-7.34
213.345	-8.34
213.817	-7.64
214.288	-3.14
214.76	-11.14
215.232	-3.44
215.703	-5.74
216.175	-5.84
216.646	-4.04
217.118	-8.64
217.589	-5.84
218.061	0.36
218.532	2.26
219.004	-3.74
219.475	0.26
219.946	0.06
220.418	-3.34
220.889	1.76
221.36	2.36
221.832	-2.94
222.303	-8.04
222.774	6.86
223.245	-10.24
223.717	-4.54
224.188	-1.04
224.659	-5.24
225.13	-5.74
225.601	-3.84
226.072	0.16
226.543	-2.44
227.014	7.26
227.485	-4.04
227.956	-2.64
228.427	-7.64
228.898	6.46
229.369	3.36
229.839	-3.54
230.31	-1.74
230.781	0.36
231.252	-2.64
231.722	-2.44
232.193	4.76
232.664	1.96
233.135	5.06
233.605	0.96
234.076	-7.64
234.546	3.36
235.017	4.16
235.487	2.56
235.958	-1.04
236.428	-2.54
236.899	2.06
237.369	3.76
237.84	-2.94
238.31	2.76
238.78	5.06
239.251	0.66
239.721	4.76
240.191	1.96
240.662	2.66
241.132	-1.34
241.602	2.16
242.072	-1.54
242.542	7.26
243.013	-5.34
243.483	1.16
243.953	3.96
244.423	-0.74
244.893	4.96
245.363	4.66
245.833	2.26
246.303	4.16
246.773	8.16
247.243	-0.84
247.712	5.76
248.182	9.86
248.652	10.36
249.122	2.46
249.592	12.76
250.061	22.96
250.531	43.76
251.001	25.66
251.471	19.66
251.94	18.56
252.41	8.66
252.879	-0.04
253.349	21.46
253.818	12.16
254.288	13.46
254.757	10.86
255.227	4.56
255.696	3.96
256.166	5.96
256.635	6.96
257.105	6.56
257.574	7.86
258.043	4.36
258.513	13.06
258.982	18.26
259.451	8.46
259.92	16.66
260.389	14.36
260.859	15.56
261.328	16.46
261.797	22.66
262.266	6.56
262.735	9.26
263.204	8.96
263.673	1.96
264.142	12.76
264.611	4.26
265.08	0.06
265.549	6.76
266.018	6.76
266.487	-2.64
266.955	-3.24
267.424	5.76
267.893	6.56
268.362	-3.54
268.83	8.06
269.299	20.36
269.768	8.26
270.236	12.86
270.705	0.76
271.174	10.26
271.642	9.36
272.111	11.26
272.579	16.66
273.048	30.16
273.516	33.46
273.985	29.86
274.453	23.16
274.922	19.46
275.39	8.96
275.858	-0.94
276.327	19.46
276.795	21.66
277.263	17.66
277.731	30.46
278.2	58.66
278.668	69.46
279.136	56.76
279.604	19.36
280.072	16.16
280.54	10.26
281.008	10.06
281.477	14.46
281.945	14.46
282.413	16.66
282.881	13.16
283.348	10.96
283.816	25.06
284.284	11.66
284.752	24.26
285.22	20.16
285.688	21.06
286.156	21.56
286.623	50.06
287.091	50.26
287.559	28.46
288.026	18.26
288.494	13.66
288.962	9.56
289.429	11.66
289.897	19.46
290.364	13.16
290.832	22.26
291.3	20.96
291.767	20.26
292.234	18.36
292.702	17.86
293.169	25.56
293.637	21.06
294.104	23.96
294.571	6.56
295.039	15.06
295.506	11.66
295.973	16.76
296.44	18.46
296.908	16.66
297.375	22.86
297.842	15.56
298.309	18.16
298.776	11.36
299.243	26.86
299.71	17.36
300.177	21.96
300.644	22.26
301.111	23.86
301.578	27.36
302.045	21.86
302.512	29.16
302.979	23.56
303.446	26.86
303.913	25.76
304.379	21.36
304.846	31.46
305.313	28.76
305.78	24.26
306.246	28.36
306.713	26.36
307.18	33.26
307.646	33.16
308.113	32.06
308.579	25.26
309.046	35.76
309.512	31.46
309.979	22.56
310.445	21.06
310.912	26.16
311.378	36.66
311.845	31.66
312.311	36.16
312.777	40.86
313.244	31.66
313.71	42.26
314.176	38.76
314.642	34.96
315.109	33.56
315.575	43.16
316.041	42.56
316.507	36.66
316.973	44.06
317.439	35.46
317.905	35.26
318.371	41.46
318.837	36.66
319.303	34.66
319.769	37.06
320.235	43.66
320.701	41.56
321.167	37.36
321.633	40.56
322.099	44.76
322.564	46.96
323.03	41.26
323.496	46.36
323.962	44.46
324.427	38.66
324.893	44.06
325.359	42.96
325.824	43.16
326.29	32.36
326.755	46.96
327.221	38.86
327.686	43.06
328.152	47.36
328.617	50.36
329.083	51.36
329.548	52.66
330.014	46.76
330.479	42.06
330.944	46.26
331.41	41.16
331.875	50.06
332.34	40.56
332.805	49.96
333.271	53.36
333.736	51.06
334.201	60.56
334.666	58.96
335.131	58.06
335.596	54.36
336.061	55.66
336.526	49.96
336.991	56.16
337.456	59.16
337.921	54.76
338.386	49.56
338.851	50.56
339.316	51.16
339.781	52.06
340.246	54.26
340.711	45.56
341.175	56.36
341.64	47.86
342.105	51.16
342.569	58.56
343.034	61.56
343.499	60.56
343.963	52.46
344.428	70.06
344.893	54.66
345.357	58.76
345.822	65.16
346.286	71.16
346.751	73.96
347.215	73.06
347.679	76.06
348.144	99.26
348.608	90.36
349.073	69.56
349.537	81.36
350.001	83.46
350.465	92.86
350.93	80.56
351.394	81.46
351.858	77.36
352.322	89.96
352.786	86.66
353.25	102.86
353.715	111.96
354.179	100.06
354.643	119.66
355.107	137.06
355.571	112.46
356.035	102.56
356.498	110.96
356.962	127.86
357.426	138.56
357.89	119.36
358.354	94.46
358.818	86.16
359.281	83.06
359.745	83.46
360.209	81.56
360.673	79.36
361.136	85.86
361.6	86.46
362.064	86.36
362.527	88.86
362.991	94.56
363.454	79.06
363.918	76.66
364.381	80.06
364.845	75.46
365.308	86.86
365.772	94.76
366.235	87.56
366.698	87.96
367.162	94.56
367.625	94.96
368.088	92.06
368.552	95.56
369.015	93.16
369.478	98.46
369.941	99.06
370.404	94.16
370.867	100.86
371.331	111.86
371.794	114.66
372.257	117.06
372.72	116.66
373.183	106.46
373.646	107.66
374.109	103.56
374.572	110.26
375.035	109.76
375.497	113.96
375.96	112.06
376.423	107.56
376.886	116.06
377.349	112.76
377.811	97.26
378.274	96.26
378.737	101.56
379.199	111.26
379.662	110.96
380.125	113.56
380.587	117.26
381.05	117.46
381.512	132.16
381.975	134.66
382.437	131.46
382.9	129.26
383.362	128.06
383.825	138.76
384.287	148.06
384.75	141.66
385.212	143.16
385.674	142.26
386.136	136.96
386.599	128.16
387.061	128.56
387.523	130.86
387.985	135.56
388.447	143.16
388.91	140.36
389.372	151.86
389.834	163.56
390.296	144.86
390.758	155.26
391.22	171.26
391.682	207.86
392.144	290.96
392.606	234.46
393.068	173.46
393.529	173.76
393.991	157.16
394.453	145.96
394.915	163.66
395.377	188.86
395.838	215.36
396.3	156.06
396.762	134.36
397.224	134.36
397.685	128.96
398.147	133.16
398.608	133.46
399.07	131.06
399.531	135.16
399.993	141.46
400.454	152.96
400.916	143.26
401.377	142.66
401.839	151.46
402.3	158.86
402.762	165.66
403.223	188.76
403.684	165.76
404.145	160.66
404.607	165.16
405.068	168.36
405.529	168.66
405.99	184.76
406.451	181.76
406.913	175.06
407.374	169.66
407.835	163.96
408.296	174.76
408.757	169.76
409.218	188.76
409.679	185.26
410.14	170.06
410.601	182.46
411.062	184.26
411.522	190.66
411.983	190.96
412.444	174.46
412.905	182.76
413.366	181.56
413.826	195.56
414.287	218.06
414.748	265.16
415.208	243.76
415.669	212.86
416.13	208.86
416.59	195.46
417.051	212.36
417.511	214.46
417.972	246.16
418.432	244.36
418.893	293.46
419.353	248.56
419.814	195.96
420.274	191.76
420.734	182.86
421.195	200.66
421.655	193.86
422.115	193.36
422.576	188.56
423.036	191.56
423.496	200.76
423.956	211.36
424.416	234.26
424.876	265.46
425.336	260.16
425.797	261.16
426.257	257.56
426.717	240.86
427.177	236.46
427.637	232.76
428.097	240.66
428.556	245.56
429.016	273.06
429.476	261.36
429.936	273.46
430.396	270.56
430.856	291.16
431.315	320.66
431.775	349.56
432.235	377.16
432.694	349.06
433.154	359.06
433.614	391.26
434.073	342.66
434.533	289.46
434.993	269.66
435.452	282.06
435.912	285.66
436.371	287.46
436.83	286.06
437.29	267.26
437.749	249.86
438.209	240.86
438.668	267.66
439.127	283.96
439.587	271.36
440.046	251.66
440.505	265.46
440.964	285.06
441.424	323.06
441.883	315.46
442.342	262.26
442.801	223.16
443.26	220.36
443.719	217.66
444.178	216.56
444.637	213.46
445.096	220.96
445.555	228.66
446.014	219.86
446.473	225.36
446.932	232.06
447.391	224.16
447.849	226.26
448.308	214.76
448.767	219.56
449.226	239.56
449.685	232.06
450.143	251.76
450.602	248.96
451.061	224.96
451.519	241.06
451.978	235.96
452.436	236.56
452.895	241.76
453.353	254.76
453.812	244.96
454.27	240.76
454.729	235.66
455.187	241.06
455.646	243.86
456.104	251.16
456.562	258.96
457.021	265.86
457.479	253.26
457.937	273.36
458.395	261.76
458.854	253.66
459.312	253.76
459.77	269.66
460.228	257.76
460.686	239.16
461.144	251.56
461.602	239.56
462.06	244.46
462.518	247.96
462.976	257.26
463.434	260.86
463.892	263.96
464.35	273.76
464.808	296.46
465.266	268.66
465.724	267.56
466.181	271.56
466.639	270.26
467.097	288.86
467.555	304.66
468.012	309.76
468.47	318.16
468.928	338.36
469.385	344.76
469.843	350.96
470.3	354.76
470.758	369.26
471.215	391.66
471.673	414.36
472.13	405.06
472.588	425.56
473.045	370.36
473.503	377.86
473.96	390.16
474.417	411.76
474.875	435.36
475.332	475.16
475.789	462.86
476.246	470.96
476.704	483.26
477.161	511.46
477.618	527.36
478.075	557.46
478.532	620.16
478.989	691.76
479.446	807.96
479.903	776.26
480.36	807.46
480.817	870.66
481.274	968.26
481.731	1078.06
482.188	1161.36
482.645	1309.06
483.102	1405.76
483.558	1550.26
484.015	1602.66
484.472	1578.76
484.929	1523.86
485.385	1488.96
485.842	1436.66
486.299	1368.06
486.755	1311.76
487.212	1102.16
487.668	934.76
488.125	846.46
488.582	779.36
489.038	745.96
489.494	719.36
489.951	686.46
490.407	671.46
490.864	650.56
491.32	652.16
491.776	643.46
492.233	655.96
492.689	616.66
493.145	599.46
493.602	593.16
494.058	613.76
494.514	614.66
494.97	637.86
495.426	655.46
495.882	632.76
496.338	614.16
496.794	629.46
497.251	629.16
497.707	637.56
498.163	646.26
498.618	651.36
499.074	642.16
499.53	672.46
499.986	681.06
500.442	661.06
500.898	629.06
501.354	626.86
501.809	639.56
502.265	650.26
502.721	665.26
503.177	678.16
503.632	666.06
504.088	677.26
504.543	709.76
504.999	714.56
505.455	662.76
505.91	634.06
506.366	639.46
506.821	628.16
507.277	626.16
507.732	624.46
508.187	628.36
508.643	633.16
509.098	644.16
509.553	657.86
510.009	670.16
510.464	676.76
510.919	684.36
511.375	692.86
511.83	710.16
512.285	733.06
512.74	760.16
513.195	789.16
513.65	775.06
514.105	775.56
514.56	780.16
515.015	790.16
515.47	815.56
515.925	794.26
516.38	801.96
516.835	795.26
517.29	786.26
517.745	773.66
518.2	768.56
518.655	752.16
519.109	742.26
519.564	752.16
520.019	728.56
520.474	732.06
520.928	722.46
521.383	726.96
521.838	717.06
522.292	714.46
522.747	705.76
523.201	694.86
523.656	704.66
524.11	698.16
524.565	695.36
525.019	688.66
525.474	692.56
525.928	701.46
526.382	702.56
526.837	705.36
527.291	697.56
527.745	700.56
528.2	702.26
528.654	698.06
529.108	694.66
529.562	697.36
530.016	689.96
530.47	701.66
530.925	696.56
531.379	696.26
531.833	705.06
532.287	705.26
532.741	706.56
533.195	711.66
533.649	715.56
534.103	725.86
534.556	711.56
535.01	710.96
535.464	714.26
535.918	723.26
536.372	723.16
536.826	719.66
537.279	701.06
537.733	707.86
538.187	712.06
538.64	724.56
539.094	722.16
539.548	719.56
540.001	731.06
540.455	718.76
540.908	721.06
541.362	726.06
541.815	750.46
542.269	757.56
542.722	756.36
543.175	768.56
543.629	768.26
544.082	787.56
544.536	783.06
544.989	776.76
545.442	795.16
545.895	787.86
546.349	787.76
546.802	787.26
547.255	788.96
547.708	801.96
548.161	820.06
548.614	813.16
549.067	814.66
549.52	819.86
549.973	804.16
550.426	802.96
550.879	790.36
551.332	791.76
551.785	808.36
552.238	802.46
552.691	818.06
553.144	830.06
553.596	831.36
554.049	866.86
554.502	890.56
554.955	913.76
555.407	904.86
555.86	903.76
556.313	891.06
556.765	885.26
557.218	876.66
557.67	887.16
558.123	876.76
558.576	875.46
559.028	876.36
559.48	881.16
559.933	868.96
560.385	837.46
560.838	794.26
561.29	773.06
561.742	770.46
562.195	755.66
562.647	756.46
563.099	774.46
563.551	771.76
564.004	783.86
564.456	761.96
564.908	750.16
565.36	744.46
565.812	730.16
566.264	726.16
566.716	722.26
567.168	713.06
567.62	716.36
568.072	702.66
568.524	678.16
568.976	683.06
569.428	668.26
569.88	661.86
570.332	675.16
570.784	683.86
571.235	678.26
571.687	688.26
572.139	704.86
572.59	707.86
573.042	704.56
573.494	706.96
573.945	705.76
574.397	680.86
574.849	685.06
575.3	684.96
575.752	683.16
576.203	670.06
576.655	673.36
577.106	669.76
577.557	655.26
578.009	658.66
578.46	665.66
578.912	655.76
579.363	651.86
579.814	649.56
580.265	650.46
580.717	663.96
581.168	671.86
581.619	676.16
582.07	670.86
582.521	664.86
582.972	673.06
583.423	668.46
583.875	669.46
584.326	694.26
584.777	730.56
585.227	807.56
585.678	882.26
586.129	985.16
586.58	1052.66
587.031	1127.86
587.482	1291.46
587.933	1472.06
588.384	1273.06
588.834	956.36
589.285	787.86
589.736	757.36
590.186	757.76
590.637	746.56
591.088	726.76
591.538	723.96
591.989	720.96
592.439	723.26
592.89	698.66
593.34	701.46
593.791	693.06
594.241	688.96
594.692	695.66
595.142	690.86
595.593	686.96
596.043	688.06
596.493	702.56
596.943	699.86
597.394	707.76
597.844	705.16
598.294	714.76
598.744	736.96
599.195	754.56
599.645	791.76
600.095	841.16
600.545	899.26
600.995	946.76
601.445	1007.36
601.895	1073.36
602.345	1110.36
602.795	1084.76
603.245	1047.16
603.695	982.66
604.145	942.16
604.594	900.46
605.044	834.86
605.494	786.96
605.944	726.86
606.393	727.36
606.843	704.36
607.293	720.56
607.743	712.76
608.192	724.16
608.642	739.36
609.091	744.56
609.541	751.86
609.99	747.16
610.44	754.46
610.889	701.26
611.339	681.16
611.788	665.66
612.238	678.76
612.687	700.46
613.136	701.76
613.586	722.56
614.035	712.26
614.484	734.86
614.933	731.46
615.383	722.36
615.832	710.96
616.281	697.76
616.73	664.06
617.179	647.06
617.628	638.06
618.077	608.16
618.526	603.66
618.975	600.16
619.424	595.36
619.873	596.26
620.322	605.26
620.771	589.76
621.22	578.56
621.669	575.16
622.118	574.96
622.567	564.16
623.015	548.76
623.464	552.06
623.913	545.26
624.361	548.26
624.81	529.66
625.259	535.66
625.707	532.36
626.156	541.66
626.604	548.06
627.053	538.56
627.501	550.96
627.95	552.46
628.398	566.86
628.847	548.76
629.295	554.86
629.744	554.56
630.192	545.26
630.64	550.06
631.089	546.06
631.537	556.56
631.985	575.86
632.433	575.46
632.881	576.86
633.33	628.56
633.778	621.66
634.226	548.26
634.674	559.46
635.122	552.66
635.57	581.26
636.018	609.56
636.466	575.16
636.914	539.26
637.362	545.56
637.81	552.16
638.258	553.26
638.705	553.96
639.153	587.96
639.601	605.06
640.049	617.76
640.497	656.26
640.944	665.86
641.392	624.36
641.84	595.06
642.287	571.16
642.735	554.66
643.182	547.46
643.63	549.76
644.078	557.06
644.525	567.66
644.973	565.76
645.42	573.46
645.867	594.06
646.315	613.06
646.762	638.76
647.21	659.56
647.657	689.96
648.104	723.06
648.551	750.96
648.999	803.76
649.446	875.26
649.893	953.16
650.34	1107.26
650.787	1328.36
651.234	1642.96
651.682	2129.66
652.129	2945.56
652.576	4215.76
653.023	6192.06
653.47	8536.16
653.917	10741.86
654.363	12444.06
654.81	13855.86
655.257	13206.26
655.704	8588.76
656.151	5073.66
656.598	3316.66
657.044	2339.36
657.491	1786.86
657.938	1424.66
658.385	1191.76
658.831	1043.36
659.278	924.26
659.724	818.36
660.171	758.36
660.618	696.16
661.064	665.96
661.511	637.46
661.957	622.76
662.404	617.56
662.85	622.56
663.296	599.66
663.743	539.66
664.189	519.36
664.635	518.06
665.082	503.06
665.528	503.46
665.974	501.86
666.42	489.16
666.867	483.26
667.313	467.56
667.759	456.86
668.205	454.96
668.651	458.86
669.097	465.06
669.543	485.16
669.989	444.86
670.435	426.06
670.881	426.66
671.327	423.16
671.773	446.66
672.219	466.96
672.665	516.36
673.11	551.06
673.556	595.56
674.002	651.46
674.448	612.76
674.893	526.46
675.339	463.86
675.785	431.16
676.23	395.06
676.676	373.46
677.122	364.76
677.567	358.56
678.013	353.86
678.458	344.56
678.904	344.16
679.349	332.66
679.794	334.66
680.24	334.96
680.685	339.46
681.131	337.66
681.576	327.36
682.021	335.96
682.466	326.26
682.912	330.46
683.357	339.46
683.802	363.56
684.247	383.96
684.692	433.76
685.137	473.06
685.583	504.76
686.028	541.26
686.473	490.36
686.918	436.16
687.363	389.66
687.807	367.66
688.252	347.76
688.697	344.36
689.142	313.66
689.587	319.36
690.032	314.66
690.477	320.86
690.921	332.36
691.366	358.66
691.811	389.76
692.255	413.96
692.7	436.36
693.145	476.26
693.589	650.56
694.034	1051.16
694.478	1449.66
694.923	1655.36
695.367	2164.46
695.812	1139.66
696.256	467.46
696.701	351.26
697.145	323.16
697.59	309.96
698.034	302.26
698.478	312.36
698.922	308.86
699.367	309.96
699.811	325.36
700.255	336.06
700.699	362.66
701.143	398.26
701.588	454.86
702.032	486.26
702.476	483.56
702.92	462.96
703.364	463.46
703.808	597.86
704.252	959.86
704.696	1360.86
705.14	1587.86
705.584	2035.36
706.027	1019.36
706.471	498.96
706.915	375.36
707.359	333.66
707.803	306.36
708.246	295.26
708.69	298.86
709.134	299.96
709.577	294.96
710.021	301.56
710.465	284.46
710.908	285.16
711.352	283.26
711.795	302.96
712.239	321.86
712.682	360.26
713.126	391.86
713.569	436.46
714.012	351.26
714.456	306.46
714.899	281.76
715.342	255.46
715.786	248.66
716.229	243.86
716.672	238.46
717.115	230.36
717.558	244.46
718.002	239.56
718.445	250.66
718.888	272.76
719.331	277.36
719.774	287.36
720.217	285.16
720.66	263.26
721.103	252.26
721.546	241.26
721.989	230.86
722.432	220.66
722.874	226.76
723.317	211.56
723.76	218.86
724.203	248.96
724.645	299.36
725.088	413.26
725.531	535.56
725.974	618.86
726.416	517.16
726.859	290.86
727.301	228.86
727.744	221.36
728.187	225.26
728.629	224.96
729.071	227.36
729.514	244.66
729.956	254.16
730.399	261.16
730.841	266.86
731.283	259.66
731.726	252.26
732.168	240.96
732.61	253.06
733.053	262.26
733.495	294.46
733.937	333.36
734.379	375.46
734.821	401.66
735.263	498.76
735.705	773.36
736.148	1442.06
736.59	2406.96
737.032	2905.86
737.474	2375.36
737.916	761.96
738.357	404.86
738.799	307.66
739.241	282.16
739.683	265.96
740.125	279.46
740.567	283.16
741.008	295.16
741.45	295.26
741.892	298.16
742.334	327.16
742.775	338.06
743.217	322.36
743.658	250.46
744.1	237.46
744.542	244.96
744.983	286.46
745.425	323.46
745.866	324.86
746.307	268.46
746.749	268.36
747.19	301.76
747.632	421.76
748.073	812.66
748.514	1705.76
748.956	2675.36
749.397	3357.36
749.838	2776.06
750.279	2804.96
750.72	1420.66
751.162	513.56
751.603	302.76
752.044	238.96
752.485	200.46
752.926	202.76
753.367	184.76
753.808	184.86
754.249	179.96
754.69	177.86
755.131	163.76
755.572	173.66
756.013	162.16
756.453	174.06
756.894	172.56
757.335	175.26
757.776	179.06
758.216	184.16
758.657	185.86
759.098	193.66
759.538	211.06
759.979	248.16
760.42	342.06
760.86	636.56
761.301	1653.06
761.741	4083.16
762.182	6121.66
762.622	4311.36
763.063	1235.96
763.503	506.16
763.943	329.06
764.384	319.66
764.824	371.46
765.264	411.36
765.705	284.96
766.145	202.76
766.585	177.56
767.025	173.86
767.465	169.46
767.906	223.76
768.346	299.06
768.786	325.66
769.226	250.46
769.666	300.66
770.106	566.66
770.546	1420.66
770.986	2486.36
771.426	2245.06
771.866	743.36
772.306	304.66
772.745	193.76
773.185	167.66
773.625	160.16
774.065	161.76
774.505	180.26
774.944	284.06
775.384	600.96
775.824	1123.36
776.263	1107.96
776.703	473.06
777.142	203.46
777.582	142.56
778.021	135.96
778.461	133.76
778.9	131.76
779.34	120.86
779.779	116.16
780.219	101.96
780.658	103.96
781.097	110.16
781.537	104.36
781.976	108.26
782.415	93.16
782.855	100.16
783.294	97.46
783.733	100.96
784.172	104.06
784.611	97.06
785.05	105.36
785.489	105.16
785.928	113.06
786.367	107.66
786.806	115.76
787.245	125.26
787.684	129.16
788.123	138.56
788.562	122.86
789.001	114.76
789.44	109.26
789.879	110.56
790.317	104.36
790.756	117.26
791.195	116.76
791.634	132.46
792.072	192.16
792.511	334.26
792.95	921.36
793.388	1993.56
793.827	1845.96
794.265	630.56
794.704	263.56
795.142	170.16
795.581	147.36
796.019	131.96
796.458	120.86
796.896	117.76
797.334	124.66
797.773	143.36
798.211	196.46
798.649	401.16
799.087	946.86
799.526	1485.06
799.964	1868.56
800.402	1917.36
800.84	709.06
801.278	277.26
801.716	176.86
802.154	141.86
802.592	140.56
803.03	121.76
803.468	127.96
803.906	133.26
804.344	137.66
804.782	134.66
805.22	120.56
805.658	120.36
806.096	132.16
806.533	146.06
806.971	161.56
807.409	203.96
807.847	287.06
808.284	594.46
808.722	1702.26
809.16	3081.76
809.597	2870.86
810.035	5060.16
810.472	5559.16
810.91	1985.06
811.347	749.16
811.785	376.56
812.222	238.26
812.66	182.36
813.097	155.36
813.535	132.76
813.972	119.26
814.409	113.86
814.846	107.86
815.284	104.06
815.721	89.56
816.158	106.56
816.595	106.46
817.032	162.26
817.47	190.96
817.907	153.16
818.344	138.46
818.781	108.36
819.218	93.06
819.655	114.56
820.092	175.46
820.529	206.36
820.966	175.06
821.403	123.46
821.839	101.46
822.276	100.36
822.713	107.76
823.15	126.16
823.587	106.56
824.023	134.16
824.46	274.06
824.897	826.86
825.333	1284.36
825.77	546.76
826.206	216.86
826.643	123.66
827.08	92.26
827.516	78.66
827.953	76.06
828.389	78.46
828.825	65.56
829.262	63.26
829.698	57.96
830.135	63.06
830.571	58.56
831.007	60.26
831.443	61.96
831.88	62.06
832.316	56.86
832.752	66.26
833.188	59.96
833.624	64.26
834.06	64.56
834.497	63.46
834.933	75.26
835.369	71.06
835.805	66.96
836.241	73.66
836.677	77.66
837.112	82.16
837.548	99.06
837.984	129.36
838.42	178.26
838.856	443.86
839.292	1397.76
839.727	2206.56
840.163	1021.06
840.599	849.76
841.034	1897.96
841.47	2031.26
841.906	743.16
842.341	316.96
842.777	217.46
843.212	283.66
843.648	287.56
844.083	144.76
844.519	96.16
844.954	66.96
845.39	61.46
845.825	57.76
846.261	49.76
846.696	49.26
847.131	48.36
847.566	54.76
848.002	48.26
848.437	51.96
848.872	55.26
849.307	56.96
849.742	80.26
850.177	161.76
850.613	512.66
851.048	825.16
851.483	360.16
851.918	142.06
852.353	83.66
852.788	58.66
853.223	54.06
853.657	51.06
854.092	43.56
854.527	37.86
854.962	39.56
855.397	45.86
855.832	41.66
856.266	32.56
856.701	37.36
857.136	31.66
857.57	35.46
858.005	47.56
858.44	57.36
858.874	44.26
859.309	58.46
859.743	41.16
860.178	50.36
860.612	34.56
861.047	50.06
861.481	61.26
861.915	70.46
862.35	47.26
862.784	32.46
863.218	38.46
863.653	31.16
864.087	46.76
864.521	53.06
864.955	67.96
865.39	145.16
865.824	160.66
866.258	104.66
866.692	152.76
867.126	167.96
867.56	97.66
867.994	47.26
868.428	31.56
868.862	45.06
869.296	54.96
869.73	52.86
870.164	51.66
870.598	51.56
871.031	34.46
871.465	29.16
871.899	25.36
872.333	26.56
872.766	29.06
873.2	24.26
873.634	30.96
874.067	25.96
874.501	24.46
874.935	36.66
875.368	24.06
875.802	30.56
876.235	24.36
876.669	23.76
877.102	21.06
877.535	25.06
877.969	23.76
878.402	23.26
878.836	15.86
879.269	22.36
879.702	28.86
880.135	17.56
880.569	22.36
881.002	27.06
881.435	18.36
881.868	18.06
882.301	20.46
882.734	16.26
883.167	20.96
883.601	19.06
884.034	20.06
884.467	12.66
884.899	19.86
885.332	17.86
885.765	17.16
886.198	14.26
886.631	17.36
887.064	18.96
887.497	21.46
887.929	19.76
888.362	10.96
888.795	8.26
889.228	13.66
889.66	16.96
890.093	22.16
890.526	11.76
890.958	9.66
891.391	18.66
891.823	23.16
892.256	21.96
892.688	9.66
893.121	17.26
893.553	15.26
893.985	17.86
894.418	21.76
894.85	14.06
895.282	19.16
895.715	17.16
896.147	17.96
896.579	9.46
897.011	14.56
897.444	13.36
897.876	14.06
898.308	14.46
898.74	15.36
899.172	10.86
899.604	18.26
900.036	16.26
900.468	18.46
900.9	13.46
901.332	17.66
901.764	15.76
902.196	17.56
902.628	14.06
903.06	10.06
903.491	27.46
903.923	24.46
904.355	17.26
904.787	26.06
905.218	24.56
905.65	15.66
906.082	16.66
906.513	9.56
906.945	13.06
907.376	13.76
907.808	22.46
908.239	20.76
908.671	24.66
909.102	21.46
909.534	20.66
909.965	43.26
910.397	85.06
910.828	296.16
911.259	451.76
911.691	205.06
912.122	105.96
912.553	56.06
912.984	33.56
913.415	26.56
913.847	23.86
914.278	17.16
914.709	16.46
915.14	17.46
915.571	16.76
916.002	8.76
916.433	17.56
916.864	16.26
917.295	10.36
917.726	16.66
918.157	13.46
918.587	22.46
919.018	16.36
919.449	20.66
919.88	26.76
920.311	32.96
920.741	51.86
921.172	154.26
921.603	148.56
922.033	65.76
922.464	44.06
922.895	19.76
923.325	24.36
923.756	12.96
924.186	12.76
924.617	26.66
925.047	35.96
925.478	48.06
925.908	37.96
926.338	22.26
926.769	12.26
927.199	19.96
927.629	4.06
928.06	18.66
928.49	16.66
928.92	20.46
929.35	19.66
929.78	14.56
930.21	5.76
930.641	7.76
931.071	7.36
931.501	0.96
931.931	7.86
932.361	9.76
932.791	2.66
933.221	4.16
933.651	7.16
934.08	13.76
934.51	32.06
934.94	14.86
935.37	5.86
935.8	8.46
936.229	7.66
936.659	10.46
937.089	1.76
937.519	19.26
937.948	26.56
938.378	17.86
938.807	7.86
939.237	3.86
939.666	9.66
940.096	-4.54
940.525	4.96
940.955	1.76
941.384	1.06
941.814	-1.94
942.243	-3.04
942.672	1.86
943.102	0.26
943.531	2.96
943.96	3.06
944.39	2.76
944.819	-4.24
945.248	6.96
945.677	8.26
946.106	8.96
946.535	6.96
946.964	-2.04
947.393	9.56
947.822	2.46
948.251	-2.54
948.68	-2.14
949.109	7.56
949.538	4.66
949.967	3.06
950.396	-1.74
950.825	0.76
951.254	4.56
951.682	-10.54
952.111	5.86
952.54	5.66
952.969	-4.74
953.397	-6.34
953.826	4.66
954.254	-2.24
954.683	6.76
955.112	1.56
955.54	-1.54
955.969	2.26
956.397	3.56
956.826	-2.34
957.254	6.06
957.682	7.26
958.111	7.96
958.539	-1.64
958.967	7.76
959.396	2.46
959.824	5.06
960.252	0.06
960.68	0.16
961.109	-2.34
961.537	-6.04
961.965	0.56
962.393	0.06
962.821	-1.74
963.249	-3.44
963.677	7.16
964.105	3.76
964.533	39.46
964.961	36.66
965.389	18.96
965.817	7.66
966.245	2.56
966.672	-4.34
967.1	-9.94
967.528	5.86
967.956	-6.24
968.383	-0.24
968.811	-0.54
969.239	-0.74
969.666	-7.24
970.094	0.96
970.522	2.36
970.949	0.36
971.377	-5.14
971.804	-1.24
972.232	1.76
972.659	0.56
973.087	-3.94
973.514	-2.54
973.941	-6.54
974.369	4.86
974.796	-1.84
975.223	0.36
975.651	-5.54
976.078	5.56
976.505	-2.34
976.932	6.36
977.359	15.26
977.786	13.16
978.214	-0.34
978.641	-9.04
979.068	-4.54
979.495	-5.04
979.922	0.06
980.349	-2.04
980.776	2.86
981.202	-4.04
981.629	2.76
982.056	-1.94
982.483	-2.14
982.91	-0.64
983.337	-1.54
983.763	5.76
984.19	-6.14
984.617	-1.24
985.043	-4.84
985.47	-3.04
985.897	0.46
986.323	-4.34
986.75	5.36
987.176	-1.84
987.603	2.86
988.029	-1.94
988.456	-2.94
988.882	-3.14
989.308	-3.24
989.735	-5.84
990.161	4.56
990.587	-2.84
991.014	3.26
991.44	6.16
991.866	-6.84
992.292	-2.94
992.719	-5.44
993.145	4.96
993.571	-9.84
993.997	-2.64
994.423	2.16
994.849	-1.94
995.275	0.26
995.701	-0.64
996.127	-0.74
996.553	5.56
996.979	2.56
997.405	-1.74
997.83	-6.14
998.256	-9.74
998.682	-8.54
999.108	-7.24
999.534	-2.54
999.959	-9.44
1000.385	-1.74
1000.811	2.56
1001.236	-2.24
1001.662	-3.94
1002.087	-4.94
1002.513	2.96
1002.938	5.76
1003.364	-6.14
1003.789	0.36
1004.215	1.96
1004.64	1.66
1005.066	4.76
1005.491	1.26
1005.916	1.26
1006.342	3.16
1006.767	-1.84
1007.192	4.86
1007.617	-0.44
1008.042	-3.14
1008.468	-4.54
1008.893	-1.84
1009.318	3.56
1009.743	-0.94
1010.168	9.16
1010.593	2.66
1011.018	-10.04
1011.443	0.76
1011.868	-3.74
1012.293	2.86
1012.718	-7.94
1013.143	4.86
1013.567	6.16
1013.992	7.26
1014.417	-16.24
1014.842	-5.24
1015.267	-6.44
1015.691	-1.24
1016.116	7.26
1016.541	0.46
1016.965	1.96
1017.39	-0.14
1017.814	3.26
1018.239	0.46
1018.663	-5.54
1019.088	-9.74
1019.512	-5.64
1019.937	-0.54
1020.361	-2.04
1020.785	-12.44
1021.21	-3.64
1021.634	-3.84
1022.058	-0.44
1022.483	1.56
1022.907	-3.94
1023.331	-5.84
1023.755	-3.44
1024.179	-5.84
1024.604	-6.04
1025.028	-7.04
1025.452	-1.84
1025.876	-3.14
1026.3	-1.14
1026.724	-15.74
1027.148	-5.64
1027.572	-1.24
1027.996	-5.64
1028.42	1.06
1028.843	-4.84
1029.267	-2.84
1029.691	-6.04
1030.115	-2.04
1030.539	-3.54
1030.962	-2.34
1031.386	-4.14
1031.81	-5.34
1032.233	3.56
1032.657	-0.64
1033.08	0.76
1033.504	-6.54
1033.927	-4.94
1034.351	1.56
1034.774	0.06
1035.198	-0.84
1035.621	-4.54
1036.045	-5.64
1036.468	8.66
1036.891	-6.94
1037.315	-11.54
1037.738	-5.64
1038.161	1.56
1038.584	-2.94
1039.008	-7.94
1039.431	-0.04
1039.854	-4.14
1040.277	-9.54
1040.7	-6.44
1041.123	2.26
1041.546	-1.14
1041.969	-1.94
1042.392	-5.04
1042.815	-2.64
1043.238	-0.24
1043.661	0.66
1044.084	-9.44
1044.507	-5.14
1044.93	2.36
1045.352	-5.94
1045.775	-0.24
1046.198	-1.24
1046.621	0.26
1047.043	-0.14
1047.466	4.16
1047.889	-4.44
1048.311	-3.54
1048.734	-8.34
1049.156	1.96
1049.579	-2.34
1050.001	5.56
1050.424	-0.94
1050.846	-4.24
1051.269	3.86
1051.691	-4.34
1052.113	-4.34
1052.536	-4.34
1052.958	2.56
1053.38	-4.74
1053.802	-8.84
1054.225	0.56
1054.647	-11.24
1055.069	-10.54
1055.491	-3.74
1055.913	-3.94
1056.335	-2.14
1056.757	0.66
1057.179	-4.74
1057.601	-4.34
1058.023	-1.04
1058.445	-1.64
1058.867	-1.54
1059.289	-7.24
1059.711	-3.64
1060.133	0.36
1060.555	-7.04
1060.976	-7.94
1061.398	-4.64
1061.82	-8.34
1062.241	-8.64
1062.663	-9.84
1063.085	-4.64
1063.506	2.16
1063.928	-9.74
1064.35	-0.74
1064.771	-5.04
1065.193	-4.74
1065.614	-9.14
1066.035	3.86
1066.457	-3.34
1066.878	-1.14
1067.3	-6.64
1067.721	-4.74
1068.142	-2.74
1068.564	-8.24
1068.985	-2.44
1069.406	3.46
1069.827	-3.44
1070.248	2.16
1070.67	-10.64
1071.091	-3.64
1071.512	-4.24
1071.933	-2.84
1072.354	-4.04
1072.775	-3.44
1073.196	-5.14
1073.617	-1.14
1074.038	0.06
1074.459	-5.64
1074.88	-1.24
1075.3	2.86
1075.721	-4.74
1076.142	3.86
1076.563	-0.54
1076.983	-15.64
1077.404	-10.64
1077.825	-7.14
1078.246	-3.24
1078.666	-6.44
1079.087	-1.84
1079.507	-0.54
1079.928	-2.14
1080.348	-1.04
1080.769	-10.74
1081.189	-2.44
1081.61	-5.64
1082.03	-4.64
1082.451	-5.24
1082.871	-0.14
1083.291	-10.84
1083.711	-10.94
1084.132	-7.14
1084.552	0.36
1084.972	0.56
1085.392	-8.04
1085.813	-6.84
1086.233	-7.14
1086.653	-9.04
1087.073	-2.84
1087.493	-4.94
1087.913	-6.94
1088.333	-2.94
1088.753	-2.94
1089.173	-3.94
1089.593	0.96
1090.013	5.26
1090.433	-3.74
1090.852	-4.14
1091.272	-2.14
1091.692	-1.54
1092.112	-0.04
1092.531	-14.44
1092.951	-10.84
1093.371	2.26
1093.79	0.86
1094.21	-11.94
1094.63	-5.54
1095.049	-12.74
1095.469	-5.74
1095.888	0.66
1096.308	6.16
1096.727	5.36
1097.146	-12.24
1097.566	0.56
1097.985	-7.14
1098.405	1.76
1098.824	-5.54
1099.243	-4.04
1099.662	-9.54
1100.082	-8.04
1100.501	-6.84
1100.92	-8.94
1101.339	-6.14
1101.758	-1.74
