Data from 20171114-ORNL-Ar_H_NY_Subt18_08-04-21-727.txt Node
Date: Tue Nov 14 08:04:21 EST 2017
User: Ender
Spectrometer: HR+D1039
Trigger mode: 0
Integration Time (sec): 2.730000E-2
Scans to average: 10
Electric dark correction enabled: true
Nonlinearity correction enabled: false
Boxcar width: 0
XAxis mode: Wavelengths
Number of Pixels in Spectrum: 2048
>>>>>Begin Spectral Data<<<<<
187.836	0.4
188.309	0.4
188.782	0.4
189.255	-3.1
189.728	-2.9
190.201	6.3
190.674	-0.3
191.147	3.2
191.619	-5.9
192.092	2.4
192.565	6
193.038	0.3
193.511	0.2
193.984	-0.4
194.456	-4.6
194.929	1
195.402	1
195.874	-3.6
196.347	-1.7
196.82	-2.3
197.292	6.7
197.765	1.9
198.237	-4.9
198.71	1.5
199.182	-6.8
199.655	-2
200.127	0.9
200.6	2.9
201.072	-6.5
201.544	-7.1
202.017	-5.7
202.489	2.9
202.961	-2.7
203.433	-5.5
203.906	-3.8
204.378	-8.8
204.85	-3.5
205.322	-8.8
205.794	2.3
206.266	7.2
206.739	-7.2
207.211	1.6
207.683	-2
208.155	-4
208.627	-3.1
209.099	4.6
209.57	-9.1
210.042	-6.7
210.514	2
210.986	0.2
211.458	-9
211.93	-0.7
212.402	1.8
212.873	-4.3
213.345	-4.9
213.817	-10.1
214.288	-10.2
214.76	-13.5
215.232	-4.4
215.703	-4.4
216.175	0.6
216.646	-4.9
217.118	-9.3
217.589	-1.8
218.061	-6
218.532	-2.2
219.004	1.1
219.475	-0.5
219.946	-4.9
220.418	-7.3
220.889	0.9
221.36	-1.1
221.832	-4
222.303	-11.1
222.774	-1.1
223.245	-3.9
223.717	-6.5
224.188	-1
224.659	-0.4
225.13	-6.8
225.601	-1.9
226.072	0.8
226.543	1.5
227.014	-3.1
227.485	-0.8
227.956	-10.1
228.427	-4.2
228.898	1.3
229.369	5.8
229.839	-3.8
230.31	-5.1
230.781	-0.1
231.252	-3.3
231.722	-2.7
232.193	-0.7
232.664	1.6
233.135	4.9
233.605	1.1
234.076	-3.2
234.546	1.4
235.017	2.5
235.487	-2.5
235.958	3.4
236.428	-4.4
236.899	1.7
237.369	4
237.84	-1.3
238.31	8.4
238.78	2
239.251	1.5
239.721	4.3
240.191	5.4
240.662	-2.7
241.132	-1.1
241.602	5.5
242.072	4.5
242.542	7.7
243.013	-3.3
243.483	5.1
243.953	4.2
244.423	-1
244.893	-0.2
245.363	10
245.833	1.5
246.303	2.8
246.773	8.1
247.243	1.3
247.712	0.9
248.182	10.2
248.652	6.4
249.122	5.3
249.592	15
250.061	29.1
250.531	33.6
251.001	15.3
251.471	21.8
251.94	21.9
252.41	13.5
252.879	7.3
253.349	15.6
253.818	9.1
254.288	6.9
254.757	10.9
255.227	-2.8
255.696	13.5
256.166	9
256.635	10.2
257.105	12.7
257.574	6.3
258.043	4.2
258.513	11.3
258.982	15.1
259.451	9.5
259.92	14.4
260.389	9.1
260.859	15.6
261.328	14
261.797	24.5
262.266	13.2
262.735	18
263.204	5.9
263.673	6.5
264.142	9.1
264.611	0.5
265.08	3.1
265.549	2.9
266.018	10.2
266.487	4.6
266.955	5.6
267.424	5.6
267.893	9.9
268.362	4.6
268.83	7.3
269.299	11.9
269.768	11.7
270.236	13.4
270.705	5.3
271.174	8.9
271.642	15.1
272.111	14.4
272.579	16.2
273.048	20.6
273.516	33
273.985	31.7
274.453	28.2
274.922	22.5
275.39	14
275.858	6.9
276.327	19.5
276.795	25.3
277.263	16.3
277.731	31.4
278.2	55.3
278.668	64.7
279.136	49.6
279.604	18.6
280.072	7.4
280.54	11.3
281.008	13
281.477	12.7
281.945	17.9
282.413	15
282.881	18.6
283.348	16.1
283.816	16.3
284.284	14.8
284.752	23.9
285.22	16.9
285.688	17.5
286.156	23.5
286.623	40.5
287.091	53
287.559	27.3
288.026	22.3
288.494	14.4
288.962	2.8
289.429	9.9
289.897	23.5
290.364	19.8
290.832	14.4
291.3	13.6
291.767	22.7
292.234	22.4
292.702	11.8
293.169	20.9
293.637	24.2
294.104	30.4
294.571	11.8
295.039	10.9
295.506	15.9
295.973	22.9
296.44	16.6
296.908	21.5
297.375	19.6
297.842	21.6
298.309	16.5
298.776	10.4
299.243	28.4
299.71	15.9
300.177	23.4
300.644	25.7
301.111	17.6
301.578	25.9
302.045	15.9
302.512	22.3
302.979	27.8
303.446	26
303.913	20.2
304.379	18.1
304.846	32.6
305.313	27.1
305.78	25.7
306.246	27.2
306.713	31.9
307.18	33.7
307.646	27.7
308.113	28.3
308.579	27.2
309.046	28.9
309.512	29.6
309.979	22.3
310.445	32.6
310.912	27.9
311.378	31.9
311.845	25.9
312.311	26.5
312.777	28.1
313.244	29.8
313.71	37
314.176	36.3
314.642	33.3
315.109	34.7
315.575	37.2
316.041	45.8
316.507	34.2
316.973	40.2
317.439	35.6
317.905	32.4
318.371	44.5
318.837	35.4
319.303	31.7
319.769	30.7
320.235	29.8
320.701	32
321.167	33.6
321.633	33.5
322.099	33.7
322.564	42.7
323.03	43.4
323.496	39.2
323.962	38.5
324.427	38
324.893	44
325.359	36.6
325.824	34.3
326.29	31.2
326.755	39.1
327.221	38.1
327.686	37.5
328.152	42.6
328.617	46.4
329.083	40.3
329.548	50.4
330.014	48.5
330.479	35.4
330.944	42.5
331.41	41.3
331.875	42.6
332.34	43.6
332.805	44.9
333.271	46.8
333.736	46.4
334.201	49.8
334.666	47.9
335.131	53.2
335.596	50.2
336.061	51.1
336.526	39.3
336.991	48
337.456	56.3
337.921	50.5
338.386	38.2
338.851	42.2
339.316	46.2
339.781	42.7
340.246	45.5
340.711	48.9
341.175	53.7
341.64	40.2
342.105	52.9
342.569	47.7
343.034	50.2
343.499	50.2
343.963	47.9
344.428	60.7
344.893	59.3
345.357	55.9
345.822	57
346.286	64.8
346.751	70.4
347.215	70.1
347.679	70.4
348.144	83.3
348.608	76.7
349.073	69
349.537	72.4
350.001	72.4
350.465	88.3
350.93	72.7
351.394	71.6
351.858	71.1
352.322	84.8
352.786	74.6
353.25	99.7
353.715	105.7
354.179	92.5
354.643	113.2
355.107	117.3
355.571	100.9
356.035	100.2
356.498	106.5
356.962	115.4
357.426	116.1
357.89	113
358.354	90.2
358.818	76.5
359.281	75.5
359.745	74.4
360.209	71.4
360.673	66.5
361.136	83.3
361.6	79.9
362.064	79.6
362.527	80
362.991	89.2
363.454	74
363.918	77.1
364.381	77.8
364.845	73.8
365.308	81.3
365.772	79.1
366.235	86.3
366.698	78.3
367.162	81.7
367.625	85.4
368.088	81.6
368.552	88.2
369.015	83.9
369.478	95.9
369.941	96.9
370.404	82.4
370.867	95.9
371.331	101.4
371.794	102.7
372.257	98.2
372.72	109
373.183	102.3
373.646	96.8
374.109	98.8
374.572	102.2
375.035	97
375.497	97.1
375.96	99.1
376.423	102.5
376.886	105.3
377.349	100.3
377.811	92.9
378.274	100.3
378.737	101.2
379.199	95.1
379.662	104.9
380.125	113.5
380.587	103.5
381.05	111.1
381.512	119.1
381.975	123.9
382.437	121.2
382.9	118.3
383.362	118.6
383.825	132.7
384.287	134.7
384.75	129.4
385.212	128.2
385.674	125.5
386.136	126.6
386.599	119.6
387.061	119.8
387.523	119.9
387.985	112.8
388.447	133.8
388.91	132.4
389.372	141.2
389.834	128.4
390.296	125.8
390.758	139.5
391.22	148.5
391.682	186.1
392.144	265.9
392.606	210
393.068	154.6
393.529	153
393.991	140.4
394.453	135.8
394.915	141.1
395.377	177.7
395.838	207.6
396.3	144.5
396.762	137.1
397.224	122.2
397.685	116.7
398.147	119.4
398.608	120.1
399.07	113.2
399.531	121.3
399.993	127.1
400.454	144.6
400.916	135.2
401.377	130.9
401.839	137
402.3	143.1
402.762	151
403.223	161.4
403.684	160.5
404.145	141.6
404.607	145.6
405.068	149.7
405.529	156
405.99	170.6
406.451	155
406.913	157.6
407.374	149.7
407.835	147.2
408.296	154.7
408.757	161
409.218	163.1
409.679	163.8
410.14	158.4
410.601	160.4
411.062	170.2
411.522	175.2
411.983	169.8
412.444	155.6
412.905	166.4
413.366	162.4
413.826	177
414.287	200.5
414.748	245.7
415.208	233.9
415.669	195.7
416.13	187.4
416.59	189.1
417.051	193.7
417.511	197.5
417.972	218.1
418.432	223.1
418.893	256.5
419.353	229.8
419.814	184.1
420.274	173.6
420.734	164.6
421.195	178.9
421.655	178.2
422.115	175.7
422.576	172.3
423.036	185.1
423.496	185.8
423.956	192
424.416	217.8
424.876	241.7
425.336	238.4
425.797	240.3
426.257	230.3
426.717	211.1
427.177	211
427.637	201.7
428.097	213
428.556	224.3
429.016	246.9
429.476	236.3
429.936	243.8
430.396	247.7
430.856	261.9
431.315	283.4
431.775	314.2
432.235	338.3
432.694	313
433.154	324.8
433.614	343
434.073	302.2
434.533	257.4
434.993	242
435.452	252.4
435.912	266.9
436.371	263.7
436.83	251.1
437.29	251.8
437.749	225.5
438.209	218.2
438.668	240.2
439.127	251.1
439.587	240.2
440.046	217
440.505	231.1
440.964	249.8
441.424	278.1
441.883	268.7
442.342	232.1
442.801	211.1
443.26	199.7
443.719	193.2
444.178	194.9
444.637	191.2
445.096	197
445.555	204.9
446.014	207.8
446.473	204.7
446.932	207.4
447.391	201.9
447.849	209.4
448.308	193.6
448.767	196.9
449.226	221.7
449.685	213.1
450.143	222.8
450.602	213
451.061	205.9
451.519	210.5
451.978	210.8
452.436	211.8
452.895	220.9
453.353	230.8
453.812	212.8
454.27	216.1
454.729	216
455.187	207.6
455.646	220.9
456.104	222.4
456.562	231.2
457.021	241.2
457.479	224.7
457.937	245.6
458.395	239.8
458.854	229.4
459.312	227.9
459.77	248.2
460.228	231.3
460.686	222.7
461.144	225.1
461.602	220
462.06	216.2
462.518	229.9
462.976	232.6
463.434	230.3
463.892	240.1
464.35	252.4
464.808	262
465.266	237.8
465.724	241
466.181	253
466.639	249.3
467.097	260.8
467.555	272.9
468.012	273.3
468.47	283.6
468.928	294.3
469.385	307.2
469.843	307.4
470.3	317.3
470.758	322.7
471.215	341
471.673	365.9
472.13	365.4
472.588	369.1
473.045	333
473.503	336.5
473.96	351.9
474.417	362.7
474.875	389.9
475.332	420.1
475.789	413.9
476.246	413.1
476.704	439.8
477.161	453.4
477.618	467.8
478.075	497.1
478.532	549.2
478.989	610.8
479.446	714.1
479.903	696.9
480.36	738.6
480.817	785.7
481.274	865.1
481.731	978.9
482.188	1069.1
482.645	1183.2
483.102	1275.2
483.558	1399.7
484.015	1463.8
484.472	1448
484.929	1386.8
485.385	1353
485.842	1312.9
486.299	1236.5
486.755	1161.6
487.212	989.4
487.668	836.7
488.125	770.1
488.582	710
489.038	682
489.494	641.4
489.951	618.1
490.407	605.5
490.864	590.9
491.32	580.9
491.776	580.4
492.233	578.5
492.689	547.7
493.145	539.2
493.602	540.4
494.058	556.8
494.514	554.9
494.97	570.5
495.426	579.3
495.882	563.3
496.338	562.8
496.794	571.8
497.251	564.2
497.707	573.6
498.163	577
498.618	578
499.074	579.6
499.53	600.6
499.986	603.7
500.442	583.9
500.898	565.8
501.354	558.8
501.809	572.5
502.265	586
502.721	596.8
503.177	603.7
503.632	593.2
504.088	605.6
504.543	633.1
504.999	634.1
505.455	589
505.91	569.7
506.366	563.5
506.821	566.8
507.277	558.5
507.732	553.3
508.187	560.7
508.643	573.5
509.098	573.2
509.553	587
510.009	591.3
510.464	589.2
510.919	617.7
511.375	622.6
511.83	630
512.285	647.1
512.74	682.7
513.195	693.2
513.65	689.8
514.105	688.3
514.56	700.2
515.015	716.6
515.47	718.9
515.925	712
516.38	710
516.835	712.9
517.29	708.6
517.745	695.4
518.2	690
518.655	672.8
519.109	669.2
519.564	665.3
520.019	652.4
520.474	653.4
520.928	649.3
521.383	649.8
521.838	631.1
522.292	633.4
522.747	635.6
523.201	626.2
523.656	623.2
524.11	618.8
524.565	612
525.019	607.2
525.474	621.9
525.928	626.2
526.382	620.6
526.837	632.6
527.291	626.4
527.745	620.8
528.2	625.3
528.654	620.8
529.108	614.7
529.562	608.8
530.016	611.9
530.47	618.6
530.925	611
531.379	614.4
531.833	623.1
532.287	625.8
532.741	624.3
533.195	625
533.649	640.8
534.103	645.5
534.556	634.9
535.01	640.3
535.464	632.4
535.918	636.8
536.372	637.3
536.826	638.2
537.279	623.9
537.733	629.3
538.187	628.1
538.64	631.3
539.094	644.3
539.548	646.8
540.001	630.4
540.455	647.8
540.908	653.5
541.362	657.6
541.815	648.1
542.269	660.8
542.722	670.4
543.175	681.3
543.629	671
544.082	696.4
544.536	692.5
544.989	693.9
545.442	703.7
545.895	696.3
546.349	696.4
546.802	697
547.255	704.6
547.708	700.2
548.161	720.3
548.614	722.9
549.067	723.2
549.52	714.6
549.973	717.9
550.426	711.2
550.879	705.1
551.332	703.9
551.785	705
552.238	707.5
552.691	713.2
553.144	729.9
553.596	744.6
554.049	757
554.502	779.3
554.955	798.8
555.407	795.9
555.86	796.3
556.313	784.2
556.765	775.1
557.218	766
557.67	762.8
558.123	767.1
558.576	764.2
559.028	769
559.48	775.2
559.933	764.6
560.385	736.9
560.838	701.8
561.29	692.4
561.742	678.7
562.195	666.2
562.647	668
563.099	666.4
563.551	662.2
564.004	680.5
564.456	672.9
564.908	665.2
565.36	657.5
565.812	649.6
566.264	632.1
566.716	631.1
567.168	617.7
567.62	628.3
568.072	608.6
568.524	607.5
568.976	597.3
569.428	582.7
569.88	585.5
570.332	589.6
570.784	585.5
571.235	593.2
571.687	601.6
572.139	603.4
572.59	620.9
573.042	605.7
573.494	611.9
573.945	610.5
574.397	586.6
574.849	602.1
575.3	590.6
575.752	591.7
576.203	588.3
576.655	584.4
577.106	577.2
577.557	576.5
578.009	578.3
578.46	572
578.912	570
579.363	572.9
579.814	583.8
580.265	576.5
580.717	575.3
581.168	566.2
581.619	581.2
582.07	580.8
582.521	575.4
582.972	575.6
583.423	576.9
583.875	583.6
584.326	598.5
584.777	639.7
585.227	716.7
585.678	791.2
586.129	872.4
586.58	935.8
587.031	1015.3
587.482	1170
587.933	1341.3
588.384	1166.2
588.834	843
589.285	695
589.736	673.1
590.186	665.8
590.637	654.9
591.088	630.9
591.538	627.5
591.989	618.7
592.439	629.5
592.89	612.1
593.34	602.9
593.791	604.7
594.241	607.1
594.692	605.2
595.142	597.3
595.593	583.2
596.043	594.5
596.493	619.8
596.943	606.5
597.394	621.6
597.844	607.3
598.294	616.9
598.744	629.1
599.195	655.2
599.645	687.1
600.095	722.4
600.545	773.8
600.995	813.6
601.445	869.2
601.895	920.5
602.345	962.2
602.795	936.5
603.245	904.5
603.695	858.7
604.145	813.9
604.594	773.4
605.044	726.7
605.494	674.5
605.944	635.6
606.393	629.8
606.843	613.2
607.293	619.1
607.743	604.9
608.192	622.7
608.642	639.6
609.091	644.3
609.541	647
609.99	642
610.44	647.3
610.889	600.7
611.339	597.9
611.788	576.5
612.238	585.3
612.687	600.6
613.136	593.5
613.586	617.9
614.035	607.9
614.484	628.4
614.933	632
615.383	632.9
615.832	620.8
616.281	593
616.73	579.7
617.179	559.7
617.628	539.5
618.077	518.6
618.526	520.8
618.975	514.3
619.424	511.6
619.873	509.3
620.322	517.9
620.771	502
621.22	505.9
621.669	498.3
622.118	485.1
622.567	490.7
623.015	476.4
623.464	472.2
623.913	469.4
624.361	463.7
624.81	456.7
625.259	463.6
625.707	463.9
626.156	464.7
626.604	471
627.053	471.6
627.501	465.4
627.95	465.1
628.398	468
628.847	474.3
629.295	475.6
629.744	483.2
630.192	464.4
630.64	471.9
631.089	467.9
631.537	474.8
631.985	480.8
632.433	495.3
632.881	495.9
633.33	544.9
633.778	525.3
634.226	462.1
634.674	466
635.122	474.2
635.57	491.6
636.018	512.7
636.466	477.4
636.914	463.1
637.362	466.2
637.81	475.7
638.258	479.6
638.705	468.7
639.153	494.6
639.601	499.2
640.049	524.4
640.497	565.7
640.944	575.7
641.392	525.7
641.84	504.9
642.287	476.4
642.735	467.8
643.182	466.8
643.63	474.1
644.078	474.4
644.525	487.1
644.973	489.3
645.42	496.6
645.867	513.2
646.315	520.1
646.762	533.7
647.21	565.7
647.657	571.8
648.104	622.2
648.551	637
648.999	680
649.446	740.1
649.893	815.6
650.34	947.5
650.787	1125.4
651.234	1384
651.682	1808.5
652.129	2465.5
652.576	3553.3
653.023	5278.4
653.47	7320
653.917	9255.8
654.363	10873.7
654.81	12253.4
655.257	11635.5
655.704	7525.2
656.151	4429.5
656.598	2855.4
657.044	2001.8
657.491	1543.8
657.938	1226.3
658.385	1020.3
658.831	889.2
659.278	790.3
659.724	697
660.171	659.4
660.618	589.9
661.064	553.1
661.511	538.7
661.957	525.3
662.404	513.4
662.85	524.4
663.296	499.8
663.743	456.4
664.189	431
664.635	438.6
665.082	428
665.528	430.3
665.974	416.2
666.42	414.7
666.867	405.8
667.313	390.7
667.759	397
668.205	390.4
668.651	400.2
669.097	399.7
669.543	424.8
669.989	389.9
670.435	360.3
670.881	356.2
671.327	357.9
671.773	376.7
672.219	389.3
672.665	445.5
673.11	462.4
673.556	505.4
674.002	544
674.448	538
674.893	448.7
675.339	393.2
675.785	361.6
676.23	333
676.676	317
677.122	301.8
677.567	307
678.013	291.3
678.458	296.1
678.904	293.6
679.349	275.6
679.794	286.5
680.24	286.4
680.685	279.2
681.131	282.8
681.576	280.8
682.021	280.5
682.466	289.4
682.912	276.1
683.357	276.5
683.802	298
684.247	321.8
684.692	358.8
685.137	399.7
685.583	438
686.028	450.8
686.473	419.9
686.918	357.6
687.363	341.2
687.807	327
688.252	290.2
688.697	293.1
689.142	273.2
689.587	265
690.032	255.1
690.477	277.9
690.921	278
691.366	303.6
691.811	316
692.255	348.4
692.7	369.9
693.145	396.8
693.589	544.1
694.034	883.4
694.478	1227.6
694.923	1410
695.367	1873
695.812	982.6
696.256	402.1
696.701	301
697.145	270.7
697.59	264
698.034	256.5
698.478	259.5
698.922	259.7
699.367	264.1
699.811	266
700.255	287
700.699	303.9
701.143	335.6
701.588	385.3
702.032	418.2
702.476	412.7
702.92	393.2
703.364	385.5
703.808	494.1
704.252	796.8
704.696	1139.3
705.14	1365.2
705.584	1760.6
706.027	863.8
706.471	419.3
706.915	311.7
707.359	281.1
707.803	254
708.246	247.8
708.69	250.2
709.134	254.1
709.577	245.3
710.021	261.6
710.465	244.7
710.908	239.6
711.352	235.1
711.795	239.8
712.239	275.4
712.682	298.1
713.126	335.6
713.569	374.5
714.012	295.5
714.456	259.1
714.899	243.1
715.342	226
715.786	210.1
716.229	206.8
716.672	199.6
717.115	197.9
717.558	206.1
718.002	204.7
718.445	206.7
718.888	227
719.331	240.8
719.774	239.2
720.217	242.8
720.66	218.9
721.103	209
721.546	202.7
721.989	191.6
722.432	183.3
722.874	191
723.317	184.5
723.76	184.7
724.203	204.1
724.645	258.7
725.088	351.9
725.531	450
725.974	521.5
726.416	446.7
726.859	246
727.301	199.8
727.744	194.7
728.187	186.9
728.629	190.8
729.071	193
729.514	206.9
729.956	207.5
730.399	224.2
730.841	233.3
731.283	218.6
731.726	215.9
732.168	210.3
732.61	206.3
733.053	229.8
733.495	250.6
733.937	272
734.379	310.5
734.821	338.9
735.263	420.8
735.705	639.6
736.148	1220.3
736.59	2043.3
737.032	2521.6
737.474	2046.3
737.916	648.2
738.357	342.1
738.799	254.3
739.241	230.7
739.683	221.5
740.125	231.5
740.567	230.3
741.008	258.2
741.45	255.3
741.892	245.3
742.334	284.7
742.775	290.9
743.217	275.4
743.658	222.2
744.1	202.1
744.542	202.7
744.983	254
745.425	277.1
745.866	273.4
746.307	232
746.749	231.8
747.19	249.7
747.632	354
748.073	666.1
748.514	1439.6
748.956	2283.4
749.397	2845.1
749.838	2375.8
750.279	2441.1
750.72	1228.5
751.162	439.3
751.603	255.8
752.044	194.9
752.485	172.3
752.926	172.9
753.367	160.2
753.808	151.8
754.249	150
754.69	149.5
755.131	138.4
755.572	140.5
756.013	140.8
756.453	146.4
756.894	149.4
757.335	154.9
757.776	159.1
758.216	155.2
758.657	154.9
759.098	159.6
759.538	178.6
759.979	215.6
760.42	279.2
760.86	533.7
761.301	1380.7
761.741	3472.4
762.182	5371
762.622	3772.6
763.063	1064.8
763.503	436.7
763.943	279.6
764.384	275.5
764.824	332.4
765.264	368.1
765.705	245.2
766.145	166.5
766.585	150.2
767.025	147.6
767.465	149.2
767.906	197.4
768.346	266.1
768.786	286.8
769.226	213.7
769.666	241.3
770.106	465.2
770.546	1193.9
770.986	2151.8
771.426	1969.8
771.866	649.1
772.306	262.2
772.745	165.8
773.185	138.8
773.625	142.7
774.065	136.8
774.505	152.9
774.944	245.9
775.384	529
775.824	1026.8
776.263	1023.6
776.703	424.5
777.142	178.1
777.582	125.3
778.021	106.5
778.461	110.2
778.9	115
779.34	106.2
779.779	96
780.219	85.4
780.658	84.5
781.097	85.3
781.537	89.7
781.976	84.1
782.415	83.2
782.855	82.2
783.294	78.4
783.733	87.8
784.172	83.3
784.611	81.5
785.05	85.8
785.489	85.7
785.928	97.3
786.367	99.4
786.806	96.5
787.245	108.4
787.684	115.1
788.123	118.2
788.562	95.8
789.001	100.5
789.44	94.9
789.879	89.5
790.317	94.3
790.756	96.9
791.195	98.6
791.634	121.9
792.072	160.4
792.511	274.6
792.95	776.7
793.388	1750.9
793.827	1612.2
794.265	543.5
794.704	222
795.142	147.5
795.581	117.1
796.019	108
796.458	99.7
796.896	90.9
797.334	109
797.773	117.4
798.211	173
798.649	326.9
799.087	797.4
799.526	1259.4
799.964	1601.1
800.402	1674.2
800.84	619
801.278	249.2
801.716	150.3
802.154	122.7
802.592	121.4
803.03	106.5
803.468	102.9
803.906	113.2
804.344	122.4
804.782	108.8
805.22	108
805.658	102.9
806.096	119.2
806.533	123.9
806.971	137.3
807.409	174.4
807.847	241.7
808.284	505.6
808.722	1450.5
809.16	2689.2
809.597	2471.8
810.035	4379.2
810.472	4916.1
810.91	1729.4
811.347	636.6
811.785	332.9
812.222	216
812.66	159.4
813.097	135.6
813.535	111.5
813.972	107.3
814.409	95.8
814.846	84.8
815.284	84.9
815.721	79.2
816.158	83.5
816.595	95
817.032	151.5
817.47	164.1
817.907	143.9
818.344	119.3
818.781	96.4
819.218	87.3
819.655	95.2
820.092	155.7
820.529	178.6
820.966	155.2
821.403	115
821.839	84.8
822.276	87.3
822.713	94
823.15	99.4
823.587	96.3
824.023	117.1
824.46	231
824.897	707.9
825.333	1136.4
825.77	482
826.206	189.3
826.643	111.6
827.08	84.1
827.516	59
827.953	62.8
828.389	68.1
828.825	56.6
829.262	46.5
829.698	45.4
830.135	51.1
830.571	45.5
831.007	48
831.443	53.1
831.88	50.1
832.316	45.8
832.752	55.3
833.188	52.2
833.624	50.8
834.06	54.3
834.497	54.7
834.933	61.1
835.369	64.8
835.805	58.3
836.241	65.3
836.677	61.6
837.112	72.7
837.548	81.6
837.984	105.8
838.42	158.9
838.856	376.7
839.292	1207.5
839.727	1919.3
840.163	882.5
840.599	721.3
841.034	1638.3
841.47	1796.4
841.906	632.9
842.341	271
842.777	185.7
843.212	262.2
843.648	261.3
844.083	130.3
844.519	77.4
844.954	62
845.39	46.4
845.825	40.7
846.261	44.6
846.696	46
847.131	46.8
847.566	44.1
848.002	41
848.437	42.8
848.872	50.8
849.307	49.3
849.742	64.7
850.177	137.7
850.613	442.8
851.048	731.3
851.483	307
851.918	128.6
852.353	67.5
852.788	50.3
853.223	42.7
853.657	41.5
854.092	38.2
854.527	28.3
854.962	34.5
855.397	39.6
855.832	46.5
856.266	33.3
856.701	31.7
857.136	31.8
857.57	35.8
858.005	51.1
858.44	47.9
858.874	39.7
859.309	46.6
859.743	34.5
860.178	41.8
860.612	34.2
861.047	46.1
861.481	50
861.915	59.5
862.35	40.2
862.784	23.9
863.218	30.9
863.653	26.6
864.087	36.1
864.521	39.8
864.955	50.7
865.39	123.4
865.824	143
866.258	93.7
866.692	141.2
867.126	152.5
867.56	89.8
867.994	46.8
868.428	38.9
868.862	39.9
869.296	47.3
869.73	50
870.164	42.7
870.598	38.3
871.031	30.7
871.465	24.8
871.899	26.3
872.333	21
872.766	18.8
873.2	22.8
873.634	27.4
874.067	24.4
874.501	22.8
874.935	24.5
875.368	20.2
875.802	21.8
876.235	23.1
876.669	19.5
877.102	15.7
877.535	20.2
877.969	14.5
878.402	20.9
878.836	10.4
879.269	16.4
879.702	19.6
880.135	19
880.569	21.2
881.002	21.9
881.435	23
881.868	11.9
882.301	17.3
882.734	11.4
883.167	23.6
883.601	16.4
884.034	19.6
884.467	9.8
884.899	15.3
885.332	13.4
885.765	9.9
886.198	16.4
886.631	14.9
887.064	12.8
887.497	19.1
887.929	20.3
888.362	13.1
888.795	10.2
889.228	12
889.66	22.4
890.093	11.5
890.526	16.2
890.958	8.1
891.391	18.5
891.823	26.2
892.256	11.6
892.688	3.7
893.121	9.1
893.553	10.9
893.985	18.3
894.418	8.4
894.85	8.9
895.282	9.1
895.715	11.3
896.147	20.5
896.579	20
897.011	13.7
897.444	13.2
897.876	10.3
898.308	14.3
898.74	12.4
899.172	9.5
899.604	23.9
900.036	14.1
900.468	15
900.9	9.8
901.332	12.7
901.764	13.1
902.196	10.2
902.628	10.9
903.06	15.4
903.491	25.6
903.923	14.1
904.355	17.6
904.787	21.6
905.218	21.9
905.65	15.6
906.082	8.8
906.513	17.3
906.945	16.7
907.376	12.7
907.808	15.4
908.239	18.2
908.671	14.1
909.102	20.1
909.534	21.1
909.965	42.7
910.397	71.2
910.828	255.7
911.259	407.2
911.691	190.8
912.122	87.6
912.553	45.1
912.984	30.2
913.415	26.3
913.847	9.4
914.278	8.4
914.709	12.9
915.14	18.4
915.571	17.7
916.002	12.2
916.433	11
916.864	16.1
917.295	12.1
917.726	20.3
918.157	10.8
918.587	19.7
919.018	23.4
919.449	20.1
919.88	21
920.311	23.5
920.741	42.3
921.172	131.6
921.603	129.5
922.033	57.5
922.464	38.3
922.895	15.5
923.325	23.5
923.756	20.3
924.186	17.5
924.617	21.5
925.047	35.6
925.478	47
925.908	41.9
926.338	22.3
926.769	13.8
927.199	19.7
927.629	12.5
928.06	12.8
928.49	8.2
928.92	12.4
929.35	11.9
929.78	11.9
930.21	9.9
930.641	11.8
931.071	7.8
931.501	-3.4
931.931	6.9
932.361	8.5
932.791	1.2
933.221	6.2
933.651	6.9
934.08	13.2
934.51	23.3
934.94	7.9
935.37	7.7
935.8	10.9
936.229	7
936.659	9.3
937.089	2.2
937.519	11.4
937.948	19.4
938.378	15.5
938.807	7.7
939.237	2.7
939.666	3.1
940.096	-7.8
940.525	1.3
940.955	3.1
941.384	3.4
941.814	-4
942.243	-3.8
942.672	9.1
943.102	2.1
943.531	0.1
943.96	6.5
944.39	1.8
944.819	1.4
945.248	1.5
945.677	6
946.106	8.1
946.535	4.4
946.964	-3
947.393	-0.3
947.822	1.1
948.251	-7.2
948.68	4.9
949.109	3.6
949.538	12.1
949.967	-1.6
950.396	5.2
950.825	-2.7
951.254	2.5
951.682	-5.2
952.111	8.8
952.54	4.8
952.969	-0.9
953.397	-6.1
953.826	-3.7
954.254	-2.4
954.683	6.4
955.112	-0.8
955.54	0.8
955.969	4
956.397	-0.9
956.826	-4.5
957.254	1.6
957.682	3
958.111	8.7
958.539	0.8
958.967	3.3
959.396	-3.1
959.824	-1
960.252	2.6
960.68	-5.4
961.109	-1.8
961.537	4.9
961.965	3.7
962.393	5.4
962.821	0.5
963.249	4.9
963.677	1.4
964.105	6.2
964.533	36.6
964.961	33.4
965.389	19.8
965.817	7.8
966.245	2.9
966.672	3.3
967.1	-4.7
967.528	-3.4
967.956	-6.5
968.383	6.3
968.811	1.7
969.239	-4.1
969.666	-5.1
970.094	1.7
970.522	5.4
970.949	0.1
971.377	-6.2
971.804	-3.7
972.232	0.8
972.659	-1.9
973.087	0.7
973.514	-3.3
973.941	-3.6
974.369	6.2
974.796	-1.8
975.223	-6.7
975.651	-3.3
976.078	0.5
976.505	-0.2
976.932	4.7
977.359	16.3
977.786	8.8
978.214	-4.8
978.641	0.9
979.068	-1.2
979.495	-4
979.922	-5.9
980.349	-2.3
980.776	-3.7
981.202	-3.5
981.629	1.6
982.056	4.7
982.483	-1.9
982.91	-3.7
983.337	-11
983.763	2.3
984.19	-0.9
984.617	-0.3
985.043	-5.3
985.47	-0.9
985.897	-0.9
986.323	-2.4
986.75	3.6
987.176	-0.2
987.603	-3.5
988.029	2.8
988.456	-6.4
988.882	1.5
989.308	-9.3
989.735	0.7
990.161	5.1
990.587	-3.4
991.014	6.7
991.44	7.2
991.866	-0.6
992.292	-1.1
992.719	0.2
993.145	1.2
993.571	-6.8
993.997	-5.5
994.423	-2.7
994.849	-1.4
995.275	2.5
995.701	2.7
996.127	-6.3
996.553	0.5
996.979	-5.2
997.405	1.5
997.83	-2.2
998.256	-5.7
998.682	-3.4
999.108	-10.6
999.534	3.6
999.959	1.6
1000.385	-0.7
1000.811	-0.9
1001.236	-7.1
1001.662	-5.7
1002.087	-6.4
1002.513	5.9
1002.938	1.4
1003.364	1.4
1003.789	-2.8
1004.215	5.9
1004.64	-3.8
1005.066	3.9
1005.491	2.1
1005.916	-0.6
1006.342	-5.1
1006.767	-9.3
1007.192	0.7
1007.617	-3.8
1008.042	-1.6
1008.468	-10.5
1008.893	-6.9
1009.318	-4
1009.743	-0.1
1010.168	-2.2
1010.593	0.2
1011.018	-5.4
1011.443	0
1011.868	0.7
1012.293	-6.9
1012.718	-6.7
1013.143	0.7
1013.567	-1.2
1013.992	-1
1014.417	-12.6
1014.842	0.3
1015.267	-1.8
1015.691	-3.6
1016.116	5
1016.541	1
1016.965	6.2
1017.39	2.1
1017.814	4.1
1018.239	0.6
1018.663	-12.5
1019.088	-12.4
1019.512	-1.9
1019.937	0.9
1020.361	-4.2
1020.785	-7.1
1021.21	1.4
1021.634	-1.5
1022.058	5
1022.483	5.7
1022.907	-6.1
1023.331	2.4
1023.755	-5.5
1024.179	-0.3
1024.604	-7
1025.028	-3.1
1025.452	-0.4
1025.876	5.1
1026.3	2.7
1026.724	-9.1
1027.148	-6.2
1027.572	-6.9
1027.996	-1.7
1028.42	-8.5
1028.843	-4
1029.267	-4.6
1029.691	-4
1030.115	-5.4
1030.539	-4.3
1030.962	-1.4
1031.386	-5.6
1031.81	-4.1
1032.233	3.9
1032.657	0.5
1033.08	-3.1
1033.504	-1.1
1033.927	-3.3
1034.351	-4.9
1034.774	-4.5
1035.198	-3.4
1035.621	-3.2
1036.045	-11.3
1036.468	7.9
1036.891	-12
1037.315	-2.7
1037.738	-10.2
1038.161	-1.2
1038.584	-3.2
1039.008	-1.2
1039.431	0.2
1039.854	-2.7
1040.277	-5.1
1040.7	-15.8
1041.123	-4.3
1041.546	-4.1
1041.969	-3
1042.392	-2.9
1042.815	1.8
1043.238	7.2
1043.661	0
1044.084	-3.7
1044.507	-6.2
1044.93	-3.5
1045.352	-8.9
1045.775	0.9
1046.198	4.1
1046.621	-2.6
1047.043	-1.3
1047.466	6.9
1047.889	-1
1048.311	-4.4
1048.734	-5.4
1049.156	-3.4
1049.579	4
1050.001	-0.8
1050.424	4.5
1050.846	-3.5
1051.269	-6
1051.691	-7.3
1052.113	-5.5
1052.536	1.9
1052.958	-2
1053.38	-4.7
1053.802	-11.6
1054.225	1.5
1054.647	-11.8
1055.069	-5.9
1055.491	7.2
1055.913	-7.6
1056.335	4.1
1056.757	-7.5
1057.179	-0.5
1057.601	-6
1058.023	-6.7
1058.445	-4.2
1058.867	-4.4
1059.289	0.9
1059.711	-8.2
1060.133	-4.5
1060.555	-6.3
1060.976	-4.9
1061.398	-6.8
1061.82	-4.4
1062.241	-7.5
1062.663	-8.3
1063.085	-5.4
1063.506	-0.9
1063.928	-1.7
1064.35	-3.4
1064.771	-14.3
1065.193	0.8
1065.614	-7
1066.035	-3.2
1066.457	-0.4
1066.878	-0.5
1067.3	-2
1067.721	-0.6
1068.142	-5.2
1068.564	-5
1068.985	-4.3
1069.406	-8.4
1069.827	-1.1
1070.248	-2.2
1070.67	-3.2
1071.091	-5.3
1071.512	0.3
1071.933	-2.6
1072.354	-3.7
1072.775	-5.6
1073.196	-6.4
1073.617	-6.8
1074.038	-10.8
1074.459	-2.7
1074.88	-5.8
1075.3	-0.9
1075.721	-2.1
1076.142	1.9
1076.563	3.9
1076.983	-9.8
1077.404	-6.1
1077.825	-8.8
1078.246	-6.8
1078.666	-6.4
1079.087	-4.4
1079.507	-1.9
1079.928	0.2
1080.348	-0.6
1080.769	-2.4
1081.189	-3.2
1081.61	-3
1082.03	-2
1082.451	-5.8
1082.871	1.5
1083.291	-7.1
1083.711	-7.3
1084.132	-5.1
1084.552	0.1
1084.972	-0.5
1085.392	-5.3
1085.813	-8.8
1086.233	-9.2
1086.653	-8.5
1087.073	0.4
1087.493	-5.2
1087.913	-8.3
1088.333	-9.4
1088.753	-2.9
1089.173	-2.2
1089.593	-1.9
1090.013	1.5
1090.433	1.5
1090.852	-0.7
1091.272	-4.8
1091.692	-2
1092.112	-0.4
1092.531	-8.9
1092.951	-6
1093.371	1.5
1093.79	1.4
1094.21	0.1
1094.63	-11
1095.049	-5
1095.469	2.6
1095.888	-3.7
1096.308	-4.5
1096.727	7.4
1097.146	-6.8
1097.566	-2.5
1097.985	-4.5
1098.405	-1.4
1098.824	-4.7
1099.243	-3.7
1099.662	-5.9
1100.082	-3.3
1100.501	2.4
1100.92	-5.7
1101.339	-3.3
1101.758	-3.5
