Data from 20171114-ORNL-Ar_H_NY_Subt18_08-08-15-111.txt Node
Date: Tue Nov 14 08:08:15 EST 2017
User: Ender
Spectrometer: HR+D1039
Trigger mode: 0
Integration Time (sec): 2.730000E-2
Scans to average: 10
Electric dark correction enabled: true
Nonlinearity correction enabled: false
Boxcar width: 0
XAxis mode: Wavelengths
Number of Pixels in Spectrum: 2048
>>>>>Begin Spectral Data<<<<<
187.836	-2.2
188.309	-2.2
188.782	-2.2
189.255	1.2
189.728	-5.4
190.201	4.2
190.674	2.9
191.147	3.6
191.619	-4.3
192.092	-0.1
192.565	1.2
193.038	-0.2
193.511	1.4
193.984	1.3
194.456	-3.1
194.929	-1.3
195.402	-3.6
195.874	4.4
196.347	0.1
196.82	-6.5
197.292	8.3
197.765	-4.7
198.237	-3.4
198.71	2.7
199.182	-6.1
199.655	6.3
200.127	5.8
200.6	-4.6
201.072	-2
201.544	2.4
202.017	-1.8
202.489	4.1
202.961	-3.2
203.433	-2
203.906	-7
204.378	-2.4
204.85	-2.1
205.322	-10.6
205.794	-3.7
206.266	-2.5
206.739	-6.6
207.211	10.9
207.683	-4.9
208.155	-6.5
208.627	-5.8
209.099	-6.2
209.57	-5.3
210.042	-5.2
210.514	-8.4
210.986	2
211.458	-9.7
211.93	-0
212.402	-0.1
212.873	-0.4
213.345	-5.9
213.817	-12.6
214.288	0.9
214.76	-6
215.232	-1.9
215.703	-6.2
216.175	-1.7
216.646	-4.3
217.118	-2.4
217.589	-2.5
218.061	0.6
218.532	-1.6
219.004	-6.4
219.475	-3.6
219.946	-7.2
220.418	-3.6
220.889	2.7
221.36	7.2
221.832	-3.3
222.303	-9
222.774	1.6
223.245	-11.4
223.717	-4.9
224.188	-1.4
224.659	-9.2
225.13	-3.2
225.601	-1.3
226.072	2.1
226.543	-1.6
227.014	0.3
227.485	-7.8
227.956	-8.4
228.427	-3.6
228.898	-0.2
229.369	3.2
229.839	-1.7
230.31	-7.7
230.781	5.5
231.252	-5.5
231.722	-3.4
232.193	-2.2
232.664	-0
233.135	2.9
233.605	0.5
234.076	-3.7
234.546	2.6
235.017	6.3
235.487	-3.3
235.958	-0.7
236.428	-0.7
236.899	5.4
237.369	0.5
237.84	-3.9
238.31	2.4
238.78	6
239.251	-0.8
239.721	3.7
240.191	5.5
240.662	-5.9
241.132	-4.4
241.602	-3.3
242.072	0.3
242.542	-0.2
243.013	1.5
243.483	5.2
243.953	3.1
244.423	1.5
244.893	-5
245.363	1.9
245.833	4
246.303	-8
246.773	5.4
247.243	0.8
247.712	9.4
248.182	7.1
248.652	8.7
249.122	-1.3
249.592	7.7
250.061	19
250.531	25.4
251.001	9.4
251.471	15.9
251.94	18.9
252.41	7.9
252.879	4.5
253.349	10.5
253.818	11.7
254.288	2.5
254.757	3.7
255.227	-2
255.696	5.2
256.166	2.2
256.635	4.5
257.105	6.9
257.574	7.2
258.043	12.7
258.513	5.6
258.982	15.5
259.451	11.7
259.92	14.3
260.389	16.6
260.859	13.1
261.328	11.2
261.797	10.5
262.266	3.3
262.735	11.3
263.204	4.3
263.673	-2.1
264.142	10.3
264.611	2.1
265.08	-3.7
265.549	-0.8
266.018	4.4
266.487	-2.5
266.955	-1.3
267.424	0.5
267.893	6.3
268.362	4.4
268.83	8.5
269.299	13.3
269.768	4.7
270.236	7.8
270.705	4.6
271.174	9.8
271.642	13.5
272.111	11.9
272.579	14.2
273.048	24.6
273.516	23.4
273.985	28
274.453	18.2
274.922	19.1
275.39	14.7
275.858	7
276.327	9.6
276.795	16
277.263	6.6
277.731	30.7
278.2	48.5
278.668	53.2
279.136	46.3
279.604	12.6
280.072	12.6
280.54	12.3
281.008	10.1
281.477	11.2
281.945	8.5
282.413	14.4
282.881	13.6
283.348	7.8
283.816	20.1
284.284	10.7
284.752	15.9
285.22	10.7
285.688	16
286.156	17.2
286.623	48.1
287.091	44.5
287.559	29.4
288.026	20.3
288.494	20.8
288.962	7.4
289.429	6.4
289.897	21.1
290.364	14.5
290.832	16.8
291.3	13.8
291.767	16.9
292.234	15.1
292.702	10.6
293.169	18
293.637	22.5
294.104	25.6
294.571	8.8
295.039	8
295.506	11.2
295.973	11.9
296.44	9.4
296.908	17.5
297.375	17.1
297.842	16
298.309	6.9
298.776	14.6
299.243	30.3
299.71	8.5
300.177	19.9
300.644	15.5
301.111	14
301.578	20.1
302.045	10.4
302.512	22.3
302.979	22.4
303.446	15.1
303.913	13.2
304.379	18.8
304.846	26.2
305.313	23.5
305.78	22.1
306.246	22.5
306.713	22.3
307.18	20.4
307.646	24.7
308.113	26.4
308.579	21.5
309.046	24.3
309.512	29.2
309.979	19.4
310.445	24.4
310.912	26
311.378	26.5
311.845	25.3
312.311	23.8
312.777	27.4
313.244	23.9
313.71	30.1
314.176	24.6
314.642	24.6
315.109	32.3
315.575	31.7
316.041	37.9
316.507	30
316.973	35.5
317.439	29.6
317.905	30.5
318.371	30.3
318.837	37
319.303	29.4
319.769	31.6
320.235	32.7
320.701	29.8
321.167	34.7
321.633	31.3
322.099	39.2
322.564	44.9
323.03	39.3
323.496	39.5
323.962	35.2
324.427	37.1
324.893	37.1
325.359	38.5
325.824	31.5
326.29	32.3
326.755	37.6
327.221	42.1
327.686	31.6
328.152	49.4
328.617	38.2
329.083	52
329.548	50
330.014	41.9
330.479	38.1
330.944	41.9
331.41	39.1
331.875	44.1
332.34	32.8
332.805	41.6
333.271	33.7
333.736	38.3
334.201	49.8
334.666	56
335.131	49.2
335.596	46.2
336.061	53.7
336.526	46.4
336.991	47.7
337.456	50.5
337.921	49.8
338.386	50.1
338.851	44.5
339.316	42
339.781	42.7
340.246	44.9
340.711	43.8
341.175	50.5
341.64	45
342.105	44
342.569	49.3
343.034	53.5
343.499	53.8
343.963	51.3
344.428	60.5
344.893	58.9
345.357	56.6
345.822	54.5
346.286	59
346.751	69.5
347.215	67
347.679	68
348.144	93.6
348.608	77.7
349.073	65.7
349.537	68.4
350.001	77.2
350.465	87.2
350.93	75
351.394	72.9
351.858	66.5
352.322	81.9
352.786	75.7
353.25	98.8
353.715	110.8
354.179	96.5
354.643	125.3
355.107	122.3
355.571	101.4
356.035	97.5
356.498	110.2
356.962	121.7
357.426	132
357.89	115.4
358.354	87.7
358.818	81.3
359.281	78.1
359.745	73.5
360.209	79
360.673	75.8
361.136	77.4
361.6	82.4
362.064	79.4
362.527	81.3
362.991	85.2
363.454	81.9
363.918	76.1
364.381	72.2
364.845	78.1
365.308	82.3
365.772	81
366.235	81.5
366.698	78.5
367.162	83.1
367.625	83.4
368.088	84.4
368.552	88.5
369.015	90.3
369.478	95.1
369.941	98.7
370.404	95
370.867	100.7
371.331	106.6
371.794	115.8
372.257	110.4
372.72	110.7
373.183	105.4
373.646	102.1
374.109	99.2
374.572	109.4
375.035	108.5
375.497	109.9
375.96	107.1
376.423	96.4
376.886	109.6
377.349	98.7
377.811	99.2
378.274	102.1
378.737	104.5
379.199	111
379.662	117.3
380.125	116.1
380.587	115
381.05	111.5
381.512	126.1
381.975	129.3
382.437	134.3
382.9	128.7
383.362	139.1
383.825	143.5
384.287	144.9
384.75	142.1
385.212	138.7
385.674	140
386.136	139.4
386.599	131.9
387.061	124.8
387.523	129.4
387.985	137.4
388.447	144
388.91	141.3
389.372	152.1
389.834	150.7
390.296	141.4
390.758	157.3
391.22	169.5
391.682	217
392.144	301.5
392.606	234.7
393.068	165.3
393.529	168.6
393.991	160.8
394.453	147.7
394.915	157
395.377	191.7
395.838	218.5
396.3	154.5
396.762	147.1
397.224	131.6
397.685	125.8
398.147	132.4
398.608	134.1
399.07	122.9
399.531	127.4
399.993	140.6
400.454	147.6
400.916	141.6
401.377	135.7
401.839	146.4
402.3	147.4
402.762	162.4
403.223	186.4
403.684	170.7
404.145	151.1
404.607	157.2
405.068	167.1
405.529	166.6
405.99	181.6
406.451	173.1
406.913	170.4
407.374	164
407.835	164.4
408.296	166.1
408.757	166.8
409.218	188.6
409.679	181.4
410.14	168.8
410.601	179.5
411.062	182.7
411.522	185.6
411.983	189.4
412.444	179.2
412.905	175.7
413.366	178
413.826	190.3
414.287	216.6
414.748	256
415.208	242.7
415.669	205.3
416.13	200.2
416.59	198.7
417.051	210.9
417.511	215.3
417.972	233.1
418.432	242.6
418.893	274.5
419.353	243.4
419.814	195.2
420.274	178.5
420.734	182.8
421.195	196
421.655	200.6
422.115	190.8
422.576	181.9
423.036	197.7
423.496	203.3
423.956	219.4
424.416	226.4
424.876	252.3
425.336	253.8
425.797	263.6
426.257	253.6
426.717	235.4
427.177	230.1
427.637	221.5
428.097	233.4
428.556	235.8
429.016	271.8
429.476	260.2
429.936	267.4
430.396	272.8
430.856	285.5
431.315	316.8
431.775	355.8
432.235	377.8
432.694	349.1
433.154	367
433.614	395.3
434.073	343.6
434.533	289.6
434.993	263.1
435.452	280
435.912	294.2
436.371	294.4
436.83	287.7
437.29	264.9
437.749	242.4
438.209	245.7
438.668	269.1
439.127	286.2
439.587	266.4
440.046	255.6
440.505	257.9
440.964	272.2
441.424	318.1
441.883	306.8
442.342	250.2
442.801	219.9
443.26	214.2
443.719	221.9
444.178	223.3
444.637	203.4
445.096	219
445.555	223.3
446.014	225.3
446.473	225.3
446.932	227.9
447.391	219.8
447.849	223.7
448.308	213.5
448.767	216.6
449.226	225.9
449.685	232.2
450.143	248.2
450.602	234.1
451.061	223.6
451.519	228.9
451.978	234.7
452.436	225.3
452.895	233.2
453.353	253.1
453.812	236.4
454.27	230.2
454.729	234.9
455.187	240
455.646	236.5
456.104	246.8
456.562	253
457.021	269.1
457.479	251.3
457.937	280.2
458.395	261.8
458.854	247
459.312	255.9
459.77	271.1
460.228	254.1
460.686	237.9
461.144	249.1
461.602	241.8
462.06	242.5
462.518	251.2
462.976	249.5
463.434	256.1
463.892	250.7
464.35	268
464.808	285.5
465.266	255
465.724	261.8
466.181	271.2
466.639	268.3
467.097	286.4
467.555	287.9
468.012	296.8
468.47	309.4
468.928	320.2
469.385	336.2
469.843	341.5
470.3	339.1
470.758	347.9
471.215	380.7
471.673	414.2
472.13	402
472.588	420.1
473.045	367.4
473.503	380.4
473.96	385.5
474.417	395.4
474.875	419.8
475.332	469.5
475.789	447.7
476.246	463.4
476.704	473.7
477.161	497.1
477.618	511.6
478.075	553.6
478.532	606.6
478.989	675.9
479.446	787.1
479.903	756.1
480.36	801.3
480.817	847.4
481.274	955.4
481.731	1054.3
482.188	1147.4
482.645	1275.1
483.102	1384.8
483.558	1522.5
484.015	1566.2
484.472	1549
484.929	1504.7
485.385	1439.7
485.842	1394.6
486.299	1341.6
486.755	1281.1
487.212	1071.1
487.668	909.7
488.125	833.2
488.582	754.1
489.038	734.5
489.494	696
489.951	660.8
490.407	645.4
490.864	636.3
491.32	627.1
491.776	617.7
492.233	638
492.689	600.5
493.145	600
493.602	587.7
494.058	596.8
494.514	598.4
494.97	619.9
495.426	628.8
495.882	604.2
496.338	589.5
496.794	600.6
497.251	599.3
497.707	613.2
498.163	622.8
498.618	616.4
499.074	620.8
499.53	656.1
499.986	662.5
500.442	639.3
500.898	615.9
501.354	602.3
501.809	627.5
502.265	632.8
502.721	656.7
503.177	662.9
503.632	648
504.088	649.9
504.543	696
504.999	698.3
505.455	633.9
505.91	612
506.366	607.8
506.821	602.4
507.277	612.8
507.732	603.3
508.187	606.9
508.643	615.9
509.098	613.5
509.553	636.2
510.009	644.4
510.464	647.4
510.919	671.9
511.375	664.9
511.83	684.4
512.285	699.9
512.74	736.1
513.195	764.6
513.65	749.3
514.105	741.1
514.56	752.2
515.015	765.1
515.47	785.4
515.925	765.8
516.38	768.6
516.835	764.4
517.29	757.7
517.745	748.2
518.2	743.6
518.655	724.8
519.109	716
519.564	715.3
520.019	709.7
520.474	700.9
520.928	700.6
521.383	696.7
521.838	689.4
522.292	681.9
522.747	694.6
523.201	686.2
523.656	682.3
524.11	675
524.565	675.1
525.019	672.3
525.474	691.1
525.928	677.7
526.382	683.8
526.837	679.7
527.291	676.3
527.745	680
528.2	673
528.654	672.4
529.108	665.7
529.562	673.5
530.016	674.9
530.47	672.4
530.925	668.1
531.379	669.8
531.833	691.3
532.287	676.4
532.741	677.4
533.195	685.3
533.649	695.4
534.103	692.3
534.556	675.9
535.01	687.6
535.464	676.2
535.918	687.3
536.372	696.8
536.826	689.9
537.279	683.7
537.733	694.4
538.187	694.2
538.64	687
539.094	705.5
539.548	709.2
540.001	702.8
540.455	698
540.908	709.9
541.362	719.6
541.815	720.3
542.269	734.4
542.722	732.4
543.175	743.3
543.629	750.6
544.082	765.8
544.536	758
544.989	763.7
545.442	771.8
545.895	772.8
546.349	770
546.802	769.2
547.255	769.7
547.708	779.4
548.161	791.8
548.614	799.3
549.067	800.3
549.52	788.4
549.973	784.1
550.426	777.6
550.879	780.9
551.332	783.4
551.785	786.3
552.238	792.9
552.691	790.8
553.144	805.7
553.596	821.2
554.049	834.4
554.502	863.7
554.955	877.5
555.407	869.5
555.86	855.3
556.313	871
556.765	852.8
557.218	856.2
557.67	862
558.123	853.3
558.576	835.8
559.028	844.2
559.48	847.1
559.933	842.7
560.385	811.9
560.838	794.3
561.29	753.9
561.742	756.4
562.195	743.5
562.647	733.8
563.099	758.4
563.551	749.5
564.004	765.2
564.456	752.1
564.908	731.5
565.36	728.2
565.812	710.6
566.264	708.7
566.716	701.7
567.168	710.8
567.62	708.2
568.072	694.1
568.524	676.4
568.976	674.3
569.428	664.1
569.88	661.3
570.332	666.2
570.784	667.7
571.235	658.1
571.687	670.9
572.139	682.9
572.59	687.7
573.042	688.1
573.494	690.7
573.945	678.1
574.397	664.1
574.849	663
575.3	672.2
575.752	663.8
576.203	651.6
576.655	671
577.106	652.4
577.557	654.1
578.009	654.4
578.46	649.9
578.912	643.9
579.363	656.4
579.814	649.2
580.265	646
580.717	648.6
581.168	649.5
581.619	650.5
582.07	656.7
582.521	659.6
582.972	651.1
583.423	662.2
583.875	658.1
584.326	685.4
584.777	730.5
585.227	814.5
585.678	913.4
586.129	1014.1
586.58	1082.3
587.031	1160.9
587.482	1324.5
587.933	1507.9
588.384	1314.1
588.834	971.7
589.285	799.3
589.736	774.4
590.186	764.9
590.637	754.9
591.088	724.4
591.538	719
591.989	716.3
592.439	705.7
592.89	706.6
593.34	694.5
593.791	689.5
594.241	685.9
594.692	696.3
595.142	686.9
595.593	683.4
596.043	693.4
596.493	707.6
596.943	706.4
597.394	703.1
597.844	705.8
598.294	716.8
598.744	741.1
599.195	757.3
599.645	793.6
600.095	840.3
600.545	896.5
600.995	950.4
601.445	1004.7
601.895	1059.7
602.345	1099.9
602.795	1091.7
603.245	1033.1
603.695	982.1
604.145	927.5
604.594	886.4
605.044	830.8
605.494	776.3
605.944	735.9
606.393	720.8
606.843	714
607.293	722.5
607.743	712.1
608.192	723.6
608.642	749.8
609.091	742.7
609.541	752.9
609.99	762.1
610.44	745.2
610.889	708.5
611.339	691
611.788	675.6
612.238	690
612.687	711.2
613.136	714.8
613.586	726.3
614.035	730.5
614.484	756.4
614.933	754.5
615.383	746.9
615.832	727.5
616.281	720.7
616.73	673
617.179	660.3
617.628	635.6
618.077	621
618.526	605.6
618.975	602.1
619.424	601.9
619.873	593.9
620.322	609.6
620.771	595.6
621.22	596.6
621.669	579.7
622.118	571.6
622.567	565.7
623.015	560.2
623.464	560.5
623.913	564.1
624.361	548.2
624.81	540.2
625.259	540.2
625.707	533.7
626.156	547.3
626.604	560.7
627.053	555.3
627.501	557.9
627.95	550.9
628.398	565.4
628.847	561.1
629.295	558.3
629.744	565.7
630.192	562.8
630.64	560.1
631.089	562.9
631.537	574.7
631.985	580.2
632.433	597.6
632.881	598.3
633.33	669.5
633.778	649.9
634.226	562.9
634.674	562.3
635.122	576.6
635.57	591
636.018	615.4
636.466	578
636.914	552.9
637.362	562.5
637.81	561.5
638.258	564.4
638.705	569.6
639.153	593.7
639.601	610.2
640.049	629.3
640.497	662.4
640.944	677.1
641.392	630.6
641.84	603.7
642.287	577.8
642.735	561.8
643.182	565.2
643.63	557.2
644.078	566.9
644.525	586
644.973	598.9
645.42	587.1
645.867	614.2
646.315	637.6
646.762	661.8
647.21	686.2
647.657	701.9
648.104	741
648.551	764
648.999	838.5
649.446	900.3
649.893	1005.8
650.34	1150
650.787	1385.5
651.234	1744.7
651.682	2273.3
652.129	3111.3
652.576	4493.9
653.023	6631.1
653.47	9122.5
653.917	11295.7
654.363	12944.2
654.81	14252.2
655.257	13582
655.704	8858.1
656.151	5233.2
656.598	3377.5
657.044	2377
657.491	1838.1
657.938	1473.1
658.385	1227.6
658.831	1066.3
659.278	950
659.724	841.6
660.171	782.6
660.618	707.6
661.064	678.8
661.511	667.6
661.957	640.6
662.404	635.6
662.85	648.4
663.296	614.7
663.743	556.4
664.189	527.8
664.635	535.5
665.082	520
665.528	519.7
665.974	512.4
666.42	508.9
666.867	498.5
667.313	489
667.759	473.6
668.205	472.4
668.651	485.1
669.097	486.5
669.543	503.4
669.989	469.9
670.435	444.4
670.881	438.8
671.327	442.5
671.773	463.2
672.219	488.7
672.665	541.4
673.11	574.4
673.556	614
674.002	649.9
674.448	640.8
674.893	533.1
675.339	460.3
675.785	426.8
676.23	406.7
676.676	380.4
677.122	377.7
677.567	358.4
678.013	368.8
678.458	354.2
678.904	350.8
679.349	345.8
679.794	343.1
680.24	342.7
680.685	338.2
681.131	343.1
681.576	341.5
682.021	351.6
682.466	342.1
682.912	345
683.357	341.8
683.802	377.5
684.247	404.2
684.692	454
685.137	487.5
685.583	531.2
686.028	550.3
686.473	508.3
686.918	432.7
687.363	398.6
687.807	391.4
688.252	356.7
688.697	348.4
689.142	335.9
689.587	322.6
690.032	320.7
690.477	338.8
690.921	346.6
691.366	378.6
691.811	396.7
692.255	419.1
692.7	453.8
693.145	501.7
693.589	704.5
694.034	1134.1
694.478	1521.3
694.923	1672.8
695.367	2186.7
695.812	1170.9
696.256	491.3
696.701	365.7
697.145	336.2
697.59	324.1
698.034	319.4
698.478	326.7
698.922	325.8
699.367	314.1
699.811	337.6
700.255	360.2
700.699	375.3
701.143	428
701.588	476.3
702.032	508.8
702.476	502.5
702.92	481.4
703.364	489.8
703.808	643
704.252	1029
704.696	1433.7
705.14	1623.4
705.584	2058.3
706.027	1040.3
706.471	511.3
706.915	388.9
707.359	341.4
707.803	314.7
708.246	306.4
708.69	306.4
709.134	303.9
709.577	311.1
710.021	309
710.465	301.3
710.908	296.9
711.352	290.8
711.795	304.7
712.239	349.2
712.682	383.3
713.126	411.6
713.569	456.1
714.012	367.6
714.456	318.9
714.899	294.6
715.342	270.2
715.786	255
716.229	251.2
716.672	248
717.115	246.1
717.558	250.6
718.002	258.1
718.445	265.4
718.888	285.5
719.331	291.5
719.774	303.6
720.217	297.9
720.66	282.6
721.103	259.2
721.546	247.7
721.989	245.1
722.432	233.3
722.874	241.2
723.317	221.8
723.76	236.3
724.203	247.1
724.645	317.1
725.088	458
725.531	560.2
725.974	619.8
726.416	536.6
726.859	306.6
727.301	240.3
727.744	235.7
728.187	228.3
728.629	239.7
729.071	242.3
729.514	258.7
729.956	267.4
730.399	277.3
730.841	285.2
731.283	263.6
731.726	257
732.168	252.3
732.61	255.6
733.053	279.1
733.495	304.2
733.937	349.6
734.379	388.5
734.821	427.5
735.263	541.2
735.705	836.1
736.148	1586.6
736.59	2547.2
737.032	2923.6
737.474	2413
737.916	797.5
738.357	423.2
738.799	325.4
739.241	284.3
739.683	282
740.125	281.7
740.567	285.4
741.008	307.3
741.45	307.8
741.892	318
742.334	339.3
742.775	348
743.217	333.7
743.658	263.3
744.1	253.5
744.542	261
744.983	308
745.425	327.7
745.866	335.9
746.307	278.8
746.749	284.6
747.19	319.9
747.632	457.3
748.073	904.6
748.514	1867.5
748.956	2793.7
749.397	3508.8
749.838	2907
750.279	2829.1
750.72	1447.3
751.162	538.2
751.603	318.9
752.044	250.9
752.485	208.2
752.926	202.5
753.367	197.6
753.808	192.9
754.249	189.2
754.69	184.6
755.131	176.8
755.572	179.7
756.013	177.4
756.453	177.1
756.894	183.7
757.335	193.8
757.776	186.7
758.216	201.5
758.657	195.3
759.098	194.5
759.538	222.9
759.979	260.5
760.42	377.5
760.86	714.7
761.301	1857.2
761.741	4396.7
762.182	6164.9
762.622	4325.1
763.063	1279.8
763.503	540.3
763.943	339.8
764.384	343.5
764.824	408.8
765.264	441.9
765.705	312.4
766.145	209.2
766.585	186.8
767.025	177.3
767.465	184.4
767.906	246.3
768.346	326.2
768.786	349.9
769.226	265.8
769.666	320.3
770.106	632.4
770.546	1565.6
770.986	2565.8
771.426	2261.9
771.866	773.6
772.306	319.7
772.745	206.5
773.185	173.7
773.625	168.5
774.065	167.1
774.505	199
774.944	325.1
775.384	725.2
775.824	1256.1
776.263	1218.3
776.703	515.4
777.142	223.3
777.582	159.6
778.021	136.7
778.461	140.5
778.9	140.2
779.34	130.7
779.779	117.5
780.219	114.7
780.658	109.9
781.097	106.9
781.537	112.7
781.976	112.5
782.415	104.3
782.855	99.3
783.294	101.9
783.733	113.3
784.172	108.2
784.611	109.8
785.05	111.1
785.489	117.9
785.928	111.6
786.367	115.2
786.806	114.6
787.245	130.9
787.684	134.5
788.123	143
788.562	139
789.001	128.1
789.44	116.4
789.879	118.4
790.317	114.8
790.756	129.3
791.195	128.6
791.634	145.9
792.072	205.6
792.511	371
792.95	1021
793.388	2088.4
793.827	1849.8
794.265	657.1
794.704	280.1
795.142	180.7
795.581	159.9
796.019	138
796.458	133.5
796.896	121.5
797.334	132.5
797.773	154.1
798.211	215.5
798.649	444.1
799.087	1008.8
799.526	1557.1
799.964	1976.1
800.402	1921.8
800.84	735.1
801.278	293.7
801.716	177.1
802.154	149.3
802.592	144.2
803.03	139.9
803.468	129.6
803.906	141.4
804.344	142.1
804.782	136.3
805.22	131.1
805.658	133
806.096	149.2
806.533	152.1
806.971	173.8
807.409	214.4
807.847	311
808.284	671.5
808.722	1863.4
809.16	3191.4
809.597	3111.6
810.035	5310
810.472	5480.8
810.91	2009.2
811.347	772.3
811.785	395.2
812.222	250.3
812.66	197.2
813.097	167.4
813.535	141.8
813.972	126.2
814.409	114.8
814.846	102.6
815.284	110.5
815.721	94.7
816.158	104.4
816.595	113.7
817.032	177.7
817.47	193.8
817.907	165.8
818.344	157.1
818.781	115.8
819.218	96.1
819.655	126.3
820.092	189
820.529	206.1
820.966	168.9
821.403	123.3
821.839	107.9
822.276	94.2
822.713	119.8
823.15	130.3
823.587	118.3
824.023	143
824.46	307.3
824.897	894.4
825.333	1303.3
825.77	558.5
826.206	228.8
826.643	135.5
827.08	107
827.516	84.1
827.953	72.7
828.389	81.5
828.825	63.7
829.262	66.8
829.698	65.9
830.135	64
830.571	65.4
831.007	66.2
831.443	57.4
831.88	58.5
832.316	58
832.752	60.5
833.188	63.1
833.624	67.3
834.06	63
834.497	63.7
834.933	68.1
835.369	79.5
835.805	66.7
836.241	77.5
836.677	79.8
837.112	91
837.548	104.5
837.984	134.5
838.42	197.5
838.856	508.8
839.292	1494.8
839.727	2213.8
840.163	1045.8
840.599	940.2
841.034	1996.5
841.47	2020.8
841.906	754.4
842.341	328.2
842.777	232.4
843.212	323.3
843.648	313.1
844.083	157.3
844.519	95.9
844.954	73.4
845.39	58.4
845.825	54.2
846.261	58.3
846.696	60.9
847.131	52.6
847.566	55.5
848.002	49.1
848.437	54.1
848.872	59
849.307	64.8
849.742	79.1
850.177	184.7
850.613	556.1
851.048	847.8
851.483	366.9
851.918	151.1
852.353	89.3
852.788	65.2
853.223	56.1
853.657	53.4
854.092	50.1
854.527	48.6
854.962	39.4
855.397	44.9
855.832	48.8
856.266	45.7
856.701	43
857.136	40.2
857.57	43.4
858.005	47
858.44	52.1
858.874	46.6
859.309	50.7
859.743	46.1
860.178	45.5
860.612	46.1
861.047	51.7
861.481	69
861.915	70.3
862.35	48.1
862.784	34.8
863.218	39.3
863.653	37.3
864.087	42.7
864.521	57.5
864.955	69.6
865.39	152.5
865.824	167.8
866.258	113.6
866.692	157
867.126	169.1
867.56	94.1
867.994	54.4
868.428	36.7
868.862	48.6
869.296	52.8
869.73	54.9
870.164	49
870.598	46.5
871.031	34.8
871.465	32.5
871.899	30.3
872.333	20.7
872.766	28.8
873.2	17
873.634	29.4
874.067	26.9
874.501	31.1
874.935	34.8
875.368	31.6
875.802	26.5
876.235	25.9
876.669	28.5
877.102	24.9
877.535	29.5
877.969	21
878.402	27.3
878.836	22.1
879.269	22.6
879.702	17.8
880.135	26.8
880.569	21.8
881.002	25.9
881.435	22.2
881.868	11.8
882.301	24.3
882.734	23.6
883.167	16.4
883.601	23.3
884.034	22.3
884.467	14.8
884.899	20.9
885.332	15.1
885.765	11
886.198	15.9
886.631	19.1
887.064	22.8
887.497	19.9
887.929	25
888.362	15.2
888.795	18.5
889.228	14.9
889.66	23.9
890.093	12.1
890.526	15.9
890.958	19.5
891.391	16.7
891.823	14.5
892.256	16.5
892.688	13.1
893.121	21.5
893.553	13.3
893.985	25.8
894.418	12.3
894.85	11.5
895.282	14.9
895.715	16.7
896.147	20.6
896.579	20.2
897.011	7.4
897.444	17
897.876	15.9
898.308	15.9
898.74	16.6
899.172	12.6
899.604	28.4
900.036	18.8
900.468	15.6
900.9	22.4
901.332	23.5
901.764	16.6
902.196	21.3
902.628	16.8
903.06	19.3
903.491	29.8
903.923	26.1
904.355	22.4
904.787	19.9
905.218	26.5
905.65	29.6
906.082	10.7
906.513	14.8
906.945	15.4
907.376	16.5
907.808	22.3
908.239	19.7
908.671	30.1
909.102	22
909.534	23.4
909.965	44.5
910.397	94.9
910.828	303.2
911.259	454
911.691	208.4
912.122	109.1
912.553	51.2
912.984	35.4
913.415	24.9
913.847	30.7
914.278	16.8
914.709	17
915.14	14.7
915.571	16.9
916.002	15
916.433	18.1
916.864	17.4
917.295	13.1
917.726	20.6
918.157	15.7
918.587	29.1
919.018	15.4
919.449	22.7
919.88	23
920.311	24.5
920.741	49.4
921.172	164.8
921.603	144.3
922.033	72.8
922.464	47.5
922.895	23.5
923.325	22.3
923.756	19.8
924.186	11.2
924.617	32.4
925.047	42.2
925.478	55.7
925.908	46.6
926.338	24.9
926.769	22.9
927.199	15.6
927.629	10.5
928.06	15
928.49	8.6
928.92	8.9
929.35	10.4
929.78	8.2
930.21	5
930.641	6.5
931.071	6.4
931.501	3.7
931.931	9.3
932.361	10.6
932.791	3
933.221	9.3
933.651	8.4
934.08	19.5
934.51	27.4
934.94	5.5
935.37	8.8
935.8	13.1
936.229	10.7
936.659	11.7
937.089	-0.8
937.519	10.8
937.948	17.2
938.378	13.7
938.807	9.4
939.237	3
939.666	4.5
940.096	-5.4
940.525	-0.8
940.955	5.7
941.384	10.1
941.814	-2.6
942.243	0.5
942.672	8
943.102	-2.2
943.531	3.6
943.96	6.1
944.39	2.5
944.819	2.5
945.248	0.3
945.677	-0.1
946.106	5.2
946.535	3.2
946.964	-0.6
947.393	8.5
947.822	-2.5
948.251	-2.1
948.68	1.6
949.109	10.1
949.538	0.6
949.967	3.2
950.396	-3.5
950.825	-1
951.254	1.8
951.682	-3.7
952.111	7
952.54	7
952.969	-8
953.397	-1.8
953.826	0.9
954.254	-5.7
954.683	-7.5
955.112	-5.3
955.54	-0.3
955.969	1.4
956.397	2.7
956.826	1.1
957.254	7.6
957.682	-0.8
958.111	5.9
958.539	1.7
958.967	1.4
959.396	-3.7
959.824	2.4
960.252	0.2
960.68	-6.9
961.109	0.7
961.537	1.1
961.965	-2.5
962.393	-1.8
962.821	-2.7
963.249	6.2
963.677	4.2
964.105	6
964.533	46.5
964.961	40.4
965.389	23.3
965.817	5.3
966.245	0.9
966.672	1.5
967.1	-2.6
967.528	0.5
967.956	0.2
968.383	2.3
968.811	1.3
969.239	-3.7
969.666	-8.5
970.094	5.9
970.522	4.6
970.949	4.2
971.377	-2.5
971.804	0.6
972.232	-3.9
972.659	-2.1
973.087	-2.5
973.514	-2.9
973.941	-6.9
974.369	5.5
974.796	-0.2
975.223	-4
975.651	2.8
976.078	3.4
976.505	0.5
976.932	5.2
977.359	13.2
977.786	15.1
978.214	4.8
978.641	-7.5
979.068	-2.5
979.495	-1.2
979.922	-1.8
980.349	-2.8
980.776	9.9
981.202	1
981.629	-1.9
982.056	-0.7
982.483	-0
982.91	-0.1
983.337	-2.3
983.763	1.6
984.19	0.1
984.617	-3.7
985.043	-5.8
985.47	2.8
985.897	-4.1
986.323	-10.1
986.75	4.2
987.176	5.3
987.603	6.8
988.029	7.6
988.456	3.4
988.882	5.3
989.308	-6.3
989.735	-4.1
990.161	-0.7
990.587	-3.2
991.014	-0.9
991.44	2.2
991.866	-2.6
992.292	-4.6
992.719	-5.2
993.145	1.3
993.571	-15.5
993.997	-5.4
994.423	-3
994.849	-10
995.275	2.2
995.701	4.3
996.127	-5.4
996.553	0.1
996.979	0.4
997.405	-3
997.83	-4
998.256	-8.1
998.682	-7.1
999.108	-2.6
999.534	-3.7
999.959	-0.1
1000.385	-9.3
1000.811	2.2
1001.236	-5.7
1001.662	-5.8
1002.087	-9.7
1002.513	1.4
1002.938	0.1
1003.364	-2.7
1003.789	-0.3
1004.215	6.4
1004.64	-0.2
1005.066	2.7
1005.491	2.6
1005.916	-6
1006.342	-3.5
1006.767	-8.5
1007.192	4.7
1007.617	-7.9
1008.042	-5.8
1008.468	-2.7
1008.893	-4.9
1009.318	-6
1009.743	-6.3
1010.168	1.6
1010.593	2.4
1011.018	-8.2
1011.443	-0.6
1011.868	-5.2
1012.293	0.9
1012.718	-7.5
1013.143	-0.4
1013.567	3.6
1013.992	-1.2
1014.417	-10.1
1014.842	4.2
1015.267	2.6
1015.691	-1.2
1016.116	3.8
1016.541	-4.8
1016.965	2.2
1017.39	3
1017.814	-3.1
1018.239	-0.7
1018.663	-9.9
1019.088	-9.1
1019.512	-8.1
1019.937	-4.8
1020.361	-3.7
1020.785	-7
1021.21	-6.5
1021.634	-4.7
1022.058	-0.7
1022.483	5
1022.907	-0.2
1023.331	-3.7
1023.755	-1.6
1024.179	-2.5
1024.604	-0.8
1025.028	-8
1025.452	-4.6
1025.876	-2
1026.3	6.5
1026.724	-10.7
1027.148	-4.5
1027.572	-5.7
1027.996	-3
1028.42	-0.4
1028.843	-3.2
1029.267	-5.8
1029.691	-1.9
1030.115	-12.4
1030.539	-1.5
1030.962	-4.6
1031.386	-9.3
1031.81	-2.1
1032.233	0.7
1032.657	-1.7
1033.08	-2.1
1033.504	-1.6
1033.927	-1.3
1034.351	-3.8
1034.774	-3.7
1035.198	0.2
1035.621	-4
1036.045	-7.6
1036.468	-2.2
1036.891	-7
1037.315	-3.4
1037.738	-4.4
1038.161	0.5
1038.584	-5
1039.008	-6.1
1039.431	-2.7
1039.854	-1.4
1040.277	-8.1
1040.7	-6
1041.123	6.6
1041.546	-6.8
1041.969	-0.7
1042.392	-1.8
1042.815	0.4
1043.238	-2.7
1043.661	2.1
1044.084	-8.7
1044.507	-5.4
1044.93	-8.2
1045.352	-3
1045.775	1.4
1046.198	0.8
1046.621	-5.6
1047.043	2.2
1047.466	2.9
1047.889	1.9
1048.311	-2.1
1048.734	-8.8
1049.156	-1.6
1049.579	-0.7
1050.001	-7.8
1050.424	4.6
1050.846	-4.8
1051.269	-4.3
1051.691	-7.2
1052.113	-6.2
1052.536	-4.6
1052.958	1.6
1053.38	-3.5
1053.802	-9.3
1054.225	1.5
1054.647	-9.1
1055.069	-13.5
1055.491	-0.4
1055.913	-2.1
1056.335	0.5
1056.757	-3.2
1057.179	-5.1
1057.601	-10.3
1058.023	-4.9
1058.445	-4.4
1058.867	-2.1
1059.289	-2.9
1059.711	-5.4
1060.133	3.5
1060.555	-2.6
1060.976	-3
1061.398	-10
1061.82	-4.5
1062.241	-10.5
1062.663	-6.4
1063.085	-7
1063.506	-1.6
1063.928	-5.6
1064.35	1.3
1064.771	-11.7
1065.193	-5.8
1065.614	-6.1
1066.035	1.2
1066.457	0.1
1066.878	-3.9
1067.3	-3.6
1067.721	-8.7
1068.142	-8.2
1068.564	-6.2
1068.985	-0.9
1069.406	-9.2
1069.827	-4.7
1070.248	-1.8
1070.67	-5.7
1071.091	-3.5
1071.512	-5.6
1071.933	-5.6
1072.354	-11.3
1072.775	-5.3
1073.196	-7.1
1073.617	-3.4
1074.038	-6.5
1074.459	-2.2
1074.88	-4.3
1075.3	-2.6
1075.721	-7.2
1076.142	1.1
1076.563	0.4
1076.983	-10.8
1077.404	-8.1
1077.825	-11.8
1078.246	-4.6
1078.666	-5.5
1079.087	-4.6
1079.507	-4.5
1079.928	-0.2
1080.348	4.3
1080.769	0.8
1081.189	-1.9
1081.61	-6.3
1082.03	-8.2
1082.451	-7.2
1082.871	-0.4
1083.291	-7.9
1083.711	-9.3
1084.132	-4.9
1084.552	-8.8
1084.972	-5
1085.392	-8.9
1085.813	-15.8
1086.233	-5.4
1086.653	-2.5
1087.073	-2.5
1087.493	-11.1
1087.913	-5
1088.333	-5.9
1088.753	2.6
1089.173	5.5
1089.593	-11.1
1090.013	-1.6
1090.433	2.3
1090.852	-5.3
1091.272	0.4
1091.692	0.4
1092.112	-0.1
1092.531	-8.5
1092.951	-13.5
1093.371	-1.3
1093.79	-0.5
1094.21	-7.2
1094.63	-2.6
1095.049	-4.3
1095.469	-4.4
1095.888	-4.5
1096.308	1.1
1096.727	2.8
1097.146	-8.7
1097.566	1.9
1097.985	-6.1
1098.405	-6.8
1098.824	-9.2
1099.243	-6.4
1099.662	-14.7
1100.082	-4.5
1100.501	3.6
1100.92	-7
1101.339	-2.9
1101.758	-10.9
