Data from 20171114-ORNL-Ar_H_NY_Subt18_08-04-44-101.txt Node
Date: Tue Nov 14 08:04:44 EST 2017
User: Ender
Spectrometer: HR+D1039
Trigger mode: 0
Integration Time (sec): 2.730000E-2
Scans to average: 10
Electric dark correction enabled: true
Nonlinearity correction enabled: false
Boxcar width: 0
XAxis mode: Wavelengths
Number of Pixels in Spectrum: 2048
>>>>>Begin Spectral Data<<<<<
187.836	0.9
188.309	0.9
188.782	0.9
189.255	-0.8
189.728	-2.3
190.201	3.7
190.674	-2.1
191.147	1.8
191.619	-4.5
192.092	5.7
192.565	5.1
193.038	7.6
193.511	-2.3
193.984	0.9
194.456	-5.4
194.929	-2.9
195.402	-5.6
195.874	0.2
196.347	-3.1
196.82	-9.2
197.292	4.3
197.765	0.9
198.237	-9.3
198.71	5.4
199.182	1
199.655	1.8
200.127	-0.1
200.6	-4.7
201.072	-2.5
201.544	-4.5
202.017	-0.9
202.489	2.4
202.961	-5.2
203.433	-5.5
203.906	-6.3
204.378	-10.4
204.85	-3.3
205.322	-4.9
205.794	0.1
206.266	-5.1
206.739	-9.7
207.211	5
207.683	-5.9
208.155	-5.1
208.627	-6.9
209.099	0.5
209.57	-7.6
210.042	-4.6
210.514	-1
210.986	-0.1
211.458	-3
211.93	-8.5
212.402	1.8
212.873	-6.5
213.345	-7.6
213.817	-14.1
214.288	-5.1
214.76	-7.6
215.232	1.3
215.703	-1.5
216.175	-4.1
216.646	-4.2
217.118	-8.9
217.589	-3.8
218.061	-2
218.532	-2.4
219.004	-7
219.475	-3.2
219.946	-8
220.418	-2.7
220.889	-0.5
221.36	2.6
221.832	-8.9
222.303	-6.3
222.774	-1
223.245	-7.2
223.717	-7.4
224.188	-6.7
224.659	-5.3
225.13	-5.6
225.601	-4.2
226.072	-2.4
226.543	-0.6
227.014	-0.3
227.485	-0.4
227.956	-8.7
228.427	2.1
228.898	-1.1
229.369	-4.8
229.839	-5.2
230.31	-4.3
230.781	1.6
231.252	0.1
231.722	-1.7
232.193	-2.6
232.664	-0
233.135	1.4
233.605	5.5
234.076	-7.1
234.546	4.9
235.017	4.1
235.487	0.4
235.958	-6.2
236.428	1
236.899	6.8
237.369	6.5
237.84	3.9
238.31	9.1
238.78	-2.8
239.251	-3.3
239.721	-0.2
240.191	3.2
240.662	0.4
241.132	9.1
241.602	-2.2
242.072	2
242.542	8.5
243.013	2.5
243.483	-1.4
243.953	-6.6
244.423	-4.9
244.893	-0.6
245.363	4.7
245.833	3.8
246.303	2.7
246.773	14
247.243	5.8
247.712	6
248.182	11.3
248.652	9.9
249.122	4.8
249.592	11.4
250.061	25.9
250.531	37
251.001	18
251.471	23.6
251.94	23.5
252.41	11.2
252.879	4.2
253.349	9.9
253.818	8.7
254.288	6.4
254.757	1.7
255.227	4.4
255.696	4.8
256.166	8.4
256.635	12.7
257.105	11.3
257.574	8.5
258.043	10.5
258.513	12.2
258.982	15.5
259.451	9.1
259.92	20
260.389	13.8
260.859	18
261.328	13
261.797	19.3
262.266	13.8
262.735	13.8
263.204	5.8
263.673	4.7
264.142	9.4
264.611	-2.8
265.08	3.9
265.549	5.5
266.018	9.2
266.487	4.1
266.955	-4.3
267.424	4
267.893	4.5
268.362	3.6
268.83	3.7
269.299	11.8
269.768	6.7
270.236	8.6
270.705	8.1
271.174	8.1
271.642	13.1
272.111	8.8
272.579	19.7
273.048	27
273.516	32.5
273.985	25.6
274.453	23.8
274.922	22.1
275.39	13.9
275.858	7.3
276.327	10.9
276.795	20.5
277.263	11.5
277.731	34.1
278.2	47.9
278.668	63.3
279.136	55.7
279.604	22.7
280.072	16.8
280.54	7.6
281.008	15.6
281.477	21.4
281.945	11.6
282.413	13.8
282.881	18.3
283.348	8.4
283.816	20.8
284.284	21.9
284.752	20.9
285.22	19.3
285.688	21.1
286.156	19.7
286.623	40.7
287.091	50.5
287.559	31.7
288.026	14.1
288.494	18.8
288.962	5.5
289.429	8.7
289.897	15.6
290.364	17.4
290.832	14.2
291.3	15.4
291.767	16.8
292.234	22.4
292.702	20.5
293.169	17.3
293.637	19.9
294.104	19.4
294.571	9.2
295.039	13
295.506	22.1
295.973	18.1
296.44	12.9
296.908	23.3
297.375	25.6
297.842	15
298.309	22.8
298.776	18.7
299.243	25.1
299.71	17.9
300.177	15.9
300.644	24.4
301.111	21.8
301.578	20.9
302.045	19.4
302.512	24.9
302.979	29.5
303.446	20.6
303.913	20.1
304.379	20.7
304.846	24.3
305.313	24.6
305.78	26.1
306.246	24.9
306.713	27.4
307.18	28.3
307.646	28.4
308.113	27.4
308.579	23.5
309.046	25.2
309.512	25.6
309.979	20.7
310.445	31.4
310.912	27.9
311.378	28.2
311.845	33.1
312.311	33.4
312.777	37.5
313.244	26.5
313.71	47.8
314.176	35.1
314.642	31.6
315.109	37.2
315.575	34.6
316.041	35.9
316.507	29.9
316.973	44.5
317.439	39.7
317.905	37.4
318.371	34.3
318.837	34.9
319.303	37.3
319.769	35.2
320.235	36.1
320.701	36
321.167	41
321.633	30.8
322.099	37.6
322.564	44.8
323.03	41.2
323.496	41.1
323.962	41.9
324.427	35.1
324.893	47.3
325.359	36.2
325.824	39.8
326.29	35.8
326.755	37
327.221	46.2
327.686	40.2
328.152	52.8
328.617	49.3
329.083	53.6
329.548	58.1
330.014	46.8
330.479	44.4
330.944	45.7
331.41	47.6
331.875	48.2
332.34	48.3
332.805	48.4
333.271	52.6
333.736	38.5
334.201	51.8
334.666	54.9
335.131	55.4
335.596	49.6
336.061	49.7
336.526	46.6
336.991	48.1
337.456	55.2
337.921	49.6
338.386	45.5
338.851	46.4
339.316	50.8
339.781	53
340.246	47.5
340.711	47.9
341.175	50.2
341.64	49.9
342.105	54.5
342.569	58.1
343.034	62.2
343.499	58.2
343.963	58.6
344.428	63.1
344.893	64.7
345.357	60
345.822	63.3
346.286	72.7
346.751	71.3
347.215	61.2
347.679	71
348.144	94.3
348.608	82.9
349.073	67.5
349.537	79.2
350.001	84.3
350.465	84.7
350.93	79.4
351.394	77
351.858	77
352.322	93.3
352.786	88.4
353.25	102.3
353.715	113.1
354.179	105.9
354.643	120.4
355.107	119.5
355.571	103.7
356.035	101
356.498	119.4
356.962	130.5
357.426	133.5
357.89	117.2
358.354	89.1
358.818	83.6
359.281	82.9
359.745	77.4
360.209	76.2
360.673	70.4
361.136	79.5
361.6	84.3
362.064	85
362.527	85.8
362.991	88.2
363.454	80.1
363.918	77.2
364.381	81.3
364.845	79.1
365.308	87.5
365.772	91.2
366.235	84.2
366.698	86.1
367.162	85.8
367.625	84.8
368.088	86
368.552	91.4
369.015	90.6
369.478	101.9
369.941	101.1
370.404	92.7
370.867	106.9
371.331	102.4
371.794	110.2
372.257	97.1
372.72	116
373.183	103.4
373.646	102.2
374.109	110.9
374.572	105.6
375.035	104.3
375.497	110.4
375.96	109.7
376.423	103.8
376.886	116.4
377.349	105.3
377.811	98.4
378.274	101.5
378.737	107.3
379.199	107.4
379.662	112.2
380.125	115.9
380.587	113.3
381.05	125
381.512	133
381.975	133.7
382.437	127.3
382.9	121.7
383.362	131.4
383.825	142.1
384.287	143.1
384.75	135.6
385.212	134.5
385.674	135.3
386.136	134.8
386.599	124.5
387.061	132.5
387.523	120
387.985	134
388.447	132.6
388.91	141.9
389.372	150.6
389.834	148.7
390.296	142.1
390.758	142.9
391.22	158
391.682	200.3
392.144	280.3
392.606	220.1
393.068	156.9
393.529	161.2
393.991	155.8
394.453	143.5
394.915	149.2
395.377	184
395.838	204.3
396.3	157.6
396.762	143.1
397.224	133.3
397.685	127
398.147	124
398.608	122.6
399.07	121.7
399.531	135.5
399.993	137.9
400.454	150.5
400.916	140.5
401.377	141.4
401.839	141.7
402.3	146.5
402.762	157.9
403.223	168.7
403.684	163.5
404.145	156.6
404.607	150.6
405.068	159.5
405.529	160.3
405.99	185.4
406.451	176.5
406.913	164.7
407.374	157.1
407.835	156.1
408.296	161.2
408.757	165.1
409.218	177.6
409.679	173.6
410.14	170.5
410.601	173.7
411.062	176.1
411.522	180.1
411.983	178.8
412.444	174.6
412.905	173.2
413.366	177.7
413.826	186.4
414.287	209.4
414.748	252.5
415.208	238.7
415.669	206.6
416.13	207.8
416.59	199.4
417.051	202.6
417.511	216.9
417.972	229.6
418.432	242
418.893	278.8
419.353	243.2
419.814	193.7
420.274	170.2
420.734	173.4
421.195	188.5
421.655	195.5
422.115	188.7
422.576	190.5
423.036	187.6
423.496	193.4
423.956	214.3
424.416	219.3
424.876	254.6
425.336	252.3
425.797	249.6
426.257	250.4
426.717	232
427.177	224
427.637	219
428.097	231.9
428.556	241.1
429.016	259.8
429.476	255.8
429.936	263.6
430.396	268.2
430.856	287.3
431.315	302.9
431.775	333.8
432.235	358.5
432.694	335.2
433.154	341.9
433.614	377.6
434.073	317.6
434.533	263.3
434.993	257.9
435.452	273.3
435.912	282.4
436.371	272
436.83	271.6
437.29	255.3
437.749	237.8
438.209	239.1
438.668	261.9
439.127	275
439.587	258.3
440.046	237
440.505	252.9
440.964	269.5
441.424	314.2
441.883	290.5
442.342	246.8
442.801	212.7
443.26	214.2
443.719	211.5
444.178	209
444.637	198.8
445.096	216.4
445.555	215.5
446.014	211.9
446.473	213.8
446.932	218.5
447.391	215.7
447.849	217.3
448.308	207.2
448.767	212.3
449.226	228.1
449.685	232.1
450.143	241.6
450.602	232.5
451.061	229.6
451.519	228.3
451.978	222.1
452.436	227
452.895	237.4
453.353	245
453.812	225.9
454.27	232.3
454.729	233
455.187	226.7
455.646	235.5
456.104	235.4
456.562	250.8
457.021	258.7
457.479	248.8
457.937	266.1
458.395	254.2
458.854	241.8
459.312	241
459.77	254.2
460.228	244.8
460.686	236.3
461.144	234.5
461.602	232.9
462.06	231.9
462.518	249.1
462.976	246.1
463.434	248.1
463.892	254.5
464.35	261
464.808	279
465.266	249.8
465.724	264.9
466.181	265.2
466.639	259
467.097	273.7
467.555	293.7
468.012	291.2
468.47	297.2
468.928	319.1
469.385	330.4
469.843	336
470.3	330.4
470.758	355.5
471.215	375.3
471.673	392.2
472.13	392.7
472.588	396.7
473.045	358.1
473.503	357.6
473.96	376.9
474.417	392.2
474.875	420.5
475.332	452.8
475.789	439.9
476.246	440.8
476.704	460.3
477.161	485.9
477.618	500.3
478.075	532.1
478.532	583.9
478.989	651.5
479.446	761.6
479.903	737.3
480.36	761.3
480.817	814.1
481.274	920.9
481.731	1032
482.188	1123.3
482.645	1247.8
483.102	1359.6
483.558	1470.6
484.015	1522.4
484.472	1509.4
484.929	1468.2
485.385	1414
485.842	1376
486.299	1319.5
486.755	1247.8
487.212	1050.9
487.668	895.9
488.125	820.4
488.582	752.2
489.038	722.3
489.494	681.4
489.951	669.9
490.407	645
490.864	611.8
491.32	628.6
491.776	624
492.233	624.3
492.689	587.7
493.145	585.6
493.602	570.3
494.058	589.6
494.514	581.7
494.97	613.9
495.426	621.1
495.882	599.6
496.338	583.1
496.794	604.2
497.251	600.8
497.707	609.7
498.163	614.6
498.618	615.7
499.074	617.6
499.53	656.1
499.986	651.6
500.442	622
500.898	610.7
501.354	599.2
501.809	619.3
502.265	619.4
502.721	634.4
503.177	649.9
503.632	633.5
504.088	637.6
504.543	680.4
504.999	683.7
505.455	623.3
505.91	602.6
506.366	613.2
506.821	611.8
507.277	588.4
507.732	604.2
508.187	600.1
508.643	612.9
509.098	609.7
509.553	621.4
510.009	643.4
510.464	637.6
510.919	659.4
511.375	668.4
511.83	676.1
512.285	685.9
512.74	726
513.195	760.4
513.65	738.2
514.105	740
514.56	743.8
515.015	762.5
515.47	781.4
515.925	761.5
516.38	762.7
516.835	758.6
517.29	754.1
517.745	745.3
518.2	739.9
518.655	720.7
519.109	710.8
519.564	714.9
520.019	711.2
520.474	706.8
520.928	707.8
521.383	688.3
521.838	689.1
522.292	679.8
522.747	683.9
523.201	674.8
523.656	670.6
524.11	662.2
524.565	662.3
525.019	660.4
525.474	670.4
525.928	679.4
526.382	661.8
526.837	662.4
527.291	671
527.745	666
528.2	670.9
528.654	667.3
529.108	657.5
529.562	648.9
530.016	653.6
530.47	651.2
530.925	663.2
531.379	668.9
531.833	674.8
532.287	673.2
532.741	674.9
533.195	671.4
533.649	678
534.103	688.3
534.556	682.2
535.01	683.9
535.464	672
535.918	683.4
536.372	694.6
536.826	685
537.279	672
537.733	677.1
538.187	680.3
538.64	685.6
539.094	693.6
539.548	686.5
540.001	690.8
540.455	688.5
540.908	696.7
541.362	706.1
541.815	699.5
542.269	723.9
542.722	723.2
543.175	730.7
543.629	723.3
544.082	750.3
544.536	743.2
544.989	748.2
545.442	747.5
545.895	743.5
546.349	748.6
546.802	745.4
547.255	755
547.708	752.7
548.161	779.2
548.614	765.7
549.067	782.3
549.52	775.9
549.973	775.5
550.426	767.8
550.879	762
551.332	751.2
551.785	762
552.238	761.6
552.691	770.2
553.144	787.4
553.596	800.7
554.049	804.7
554.502	854.6
554.955	853.4
555.407	866.5
555.86	847.2
556.313	848.1
556.765	838.8
557.218	837.3
557.67	832.3
558.123	823
558.576	833.1
559.028	833.7
559.48	837.2
559.933	828.9
560.385	787
560.838	760.6
561.29	739.8
561.742	733.7
562.195	723.6
562.647	721.5
563.099	733.9
563.551	721.3
564.004	737.3
564.456	727.6
564.908	714.6
565.36	700.7
565.812	684.9
566.264	683.6
566.716	675
567.168	660.2
567.62	666.1
568.072	660.6
568.524	650.5
568.976	644.9
569.428	630.9
569.88	623
570.332	634
570.784	632.2
571.235	637.2
571.687	640.1
572.139	648.4
572.59	665.3
573.042	658
573.494	660.6
573.945	651.3
574.397	642.1
574.849	653.1
575.3	642.5
575.752	638.1
576.203	631.8
576.655	637.1
577.106	626.6
577.557	620.4
578.009	625.2
578.46	613.8
578.912	607.2
579.363	618.9
579.814	616.3
580.265	606.9
580.717	621.7
581.168	616.1
581.619	630.7
582.07	625
582.521	626.4
582.972	619.8
583.423	629.6
583.875	634.7
584.326	647
584.777	688.4
585.227	752.8
585.678	829.1
586.129	916.2
586.58	972.8
587.031	1045.9
587.482	1210.9
587.933	1365.9
588.384	1190.8
588.834	897.2
589.285	742.7
589.736	717.6
590.186	716.9
590.637	703.7
591.088	692.5
591.538	679.9
591.989	671.8
592.439	663.3
592.89	651.6
593.34	641.9
593.791	656.1
594.241	638.1
594.692	655.1
595.142	642.2
595.593	638
596.043	640.8
596.493	648.9
596.943	657.2
597.394	658.5
597.844	654.4
598.294	666.2
598.744	689.1
599.195	711
599.645	747.3
600.095	778.3
600.545	831
600.995	883.9
601.445	930
601.895	986.2
602.345	1032.3
602.795	1021.3
603.245	978.8
603.695	925.5
604.145	869.8
604.594	833.6
605.044	779.7
605.494	727.4
605.944	686.5
606.393	684.2
606.843	667.1
607.293	675.7
607.743	663.3
608.192	673
608.642	698.8
609.091	695.5
609.541	702.3
609.99	696.2
610.44	701.3
610.889	656.2
611.339	639.4
611.788	622.1
612.238	636.2
612.687	659.7
613.136	650.2
613.586	668.4
614.035	657.5
614.484	684.4
614.933	681.8
615.383	679.9
615.832	669.5
616.281	655.6
616.73	621.2
617.179	602.5
617.628	589.9
618.077	579
618.526	557.1
618.975	556.4
619.424	552.9
619.873	547.6
620.322	561.3
620.771	549.9
621.22	547.4
621.669	542
622.118	528
622.567	524.8
623.015	519.5
623.464	513.4
623.913	511.8
624.361	496.8
624.81	502.5
625.259	503.9
625.707	493.1
626.156	512.9
626.604	504
627.053	511
627.501	503.6
627.95	509
628.398	518.8
628.847	516
629.295	513.9
629.744	525.8
630.192	506.1
630.64	508.9
631.089	508.8
631.537	509.6
631.985	510.8
632.433	526
632.881	539.7
633.33	583.7
633.778	569.4
634.226	498.8
634.674	514.8
635.122	513.4
635.57	536.1
636.018	551
636.466	520.8
636.914	498.6
637.362	516.2
637.81	518.7
638.258	515.5
638.705	513.3
639.153	537.9
639.601	549.9
640.049	567.5
640.497	601.8
640.944	622.7
641.392	581.1
641.84	543.9
642.287	520.1
642.735	502.4
643.182	513.5
643.63	509.3
644.078	510.5
644.525	520.9
644.973	528.2
645.42	530.6
645.867	546.1
646.315	558
646.762	580.8
647.21	610.8
647.657	620.8
648.104	669
648.551	680.5
648.999	737.6
649.446	806.3
649.893	878.3
650.34	1010.9
650.787	1216.9
651.234	1512.5
651.682	1946.9
652.129	2628.9
652.576	3804.3
653.023	5651.2
653.47	7763.4
653.917	9839.3
654.363	11490
654.81	12896.8
655.257	12234.5
655.704	7958.5
656.151	4686.4
656.598	3019.4
657.044	2134.1
657.491	1650
657.938	1322.7
658.385	1107.6
658.831	956.3
659.278	849
659.724	758
660.171	696.2
660.618	634.2
661.064	611.9
661.511	585.8
661.957	571.4
662.404	566
662.85	573.8
663.296	547
663.743	498
664.189	473.3
664.635	476.4
665.082	463.1
665.528	465.4
665.974	456
666.42	452.6
666.867	445.8
667.313	435.4
667.759	427.7
668.205	421.6
668.651	425
669.097	419.3
669.543	440.4
669.989	412.1
670.435	392.8
670.881	394
671.327	394.9
671.773	419.5
672.219	422.5
672.665	482.4
673.11	507.9
673.556	559.7
674.002	584.9
674.448	576.7
674.893	492.4
675.339	424.1
675.785	393.2
676.23	372.3
676.676	354.5
677.122	342.1
677.567	325.6
678.013	321.6
678.458	314.9
678.904	316.8
679.349	308.7
679.794	310.6
680.24	305.3
680.685	301.6
681.131	297.5
681.576	302.2
682.021	306.8
682.466	302.1
682.912	312.4
683.357	306.3
683.802	326.4
684.247	354.3
684.692	395.7
685.137	434.7
685.583	478.5
686.028	504.3
686.473	456.2
686.918	390.6
687.363	368.2
687.807	353.6
688.252	311.5
688.697	307.7
689.142	299.8
689.587	290.4
690.032	282.9
690.477	296.2
690.921	299.5
691.366	325.1
691.811	353.6
692.255	376.4
692.7	402.9
693.145	433.5
693.589	591.7
694.034	963.4
694.478	1330.4
694.923	1529.6
695.367	2029.6
695.812	1058.4
696.256	446.8
696.701	329.7
697.145	297.3
697.59	291.8
698.034	285.2
698.478	284.2
698.922	285.7
699.367	289.5
699.811	287.3
700.255	308.3
700.699	336.7
701.143	366.1
701.588	405.7
702.032	445.7
702.476	454.1
702.92	423.5
703.364	433.2
703.808	543.6
704.252	876.4
704.696	1253.4
705.14	1479.4
705.584	1895.9
706.027	943.9
706.471	459.6
706.915	345.6
707.359	304.2
707.803	278.4
708.246	266.6
708.69	272.7
709.134	272.7
709.577	280.8
710.021	270.1
710.465	262.7
710.908	261.7
711.352	255.4
711.795	271
712.239	301.9
712.682	329.4
713.126	357.3
713.569	408
714.012	322.7
714.456	278.5
714.899	262.2
715.342	235
715.786	232.7
716.229	220.2
716.672	215.4
717.115	224.7
717.558	216.4
718.002	220.5
718.445	224.2
718.888	241.4
719.331	248.9
719.774	269.7
720.217	271.5
720.66	240.1
721.103	228.7
721.546	216.1
721.989	219.4
722.432	201.8
722.874	210.3
723.317	193.9
723.76	207
724.203	222.3
724.645	276.2
725.088	384.7
725.531	493.4
725.974	573.1
726.416	487.3
726.859	266.8
727.301	216.5
727.744	208.3
728.187	203.9
728.629	204.2
729.071	205.6
729.514	224.6
729.956	239
730.399	244.3
730.841	255.8
731.283	232.1
731.726	233.2
732.168	225.9
732.61	223.8
733.053	241.2
733.495	277.5
733.937	295.6
734.379	339.8
734.821	372.6
735.263	467.7
735.705	698.7
736.148	1318.7
736.59	2219.7
737.032	2712.2
737.474	2207.2
737.916	704.8
738.357	378.6
738.799	286.8
739.241	260.3
739.683	244.4
740.125	251.4
740.567	262.3
741.008	267.5
741.45	271.8
741.892	278
742.334	300.8
742.775	312.7
743.217	296.4
743.658	227.9
744.1	218.6
744.542	223.3
744.983	268.6
745.425	297.3
745.866	296.9
746.307	254.6
746.749	239.7
747.19	277.3
747.632	384.6
748.073	735.9
748.514	1566.4
748.956	2486.5
749.397	3101.9
749.838	2579
750.279	2647.3
750.72	1322.2
751.162	470.3
751.603	275.9
752.044	214.2
752.485	187.2
752.926	179.3
753.367	182.2
753.808	165.6
754.249	161.7
754.69	161.5
755.131	155.3
755.572	156.5
756.013	154.9
756.453	164.8
756.894	160.1
757.335	167.2
757.776	166.5
758.216	166.8
758.657	168.5
759.098	179.8
759.538	198.7
759.979	223.6
760.42	314.4
760.86	582.1
761.301	1502.4
761.741	3771.4
762.182	5759.7
762.622	4058.7
763.063	1144.8
763.503	472.4
763.943	301.2
764.384	285.7
764.824	354.8
765.264	376.4
765.705	260.1
766.145	180.4
766.585	163.2
767.025	150
767.465	156.7
767.906	203.2
768.346	270.7
768.786	288.2
769.226	229.5
769.666	271.1
770.106	515.8
770.546	1292.6
770.986	2323.7
771.426	2106.8
771.866	692.6
772.306	280.9
772.745	177.1
773.185	153.5
773.625	143.8
774.065	142.3
774.505	167.5
774.944	248.1
775.384	538
775.824	1012.9
776.263	1011
776.703	432
777.142	186.3
777.582	138.8
778.021	116.4
778.461	121.1
778.9	118.7
779.34	110.5
779.779	95.7
780.219	95.4
780.658	90.9
781.097	93.5
781.537	98.3
781.976	93
782.415	93.2
782.855	92.5
783.294	86.8
783.733	94.4
784.172	98.9
784.611	94.4
785.05	94.4
785.489	96
785.928	101.9
786.367	102.5
786.806	100.1
787.245	105.2
787.684	115.8
788.123	124.6
788.562	120.8
789.001	108.5
789.44	99.5
789.879	104.4
790.317	103
790.756	109.5
791.195	99.7
791.634	124.4
792.072	174.9
792.511	303.9
792.95	830.9
793.388	1868
793.827	1723.8
794.265	591.2
794.704	237.5
795.142	160.6
795.581	127.9
796.019	110
796.458	110.3
796.896	100.3
797.334	111.4
797.773	134.9
798.211	180.7
798.649	364.2
799.087	880.1
799.526	1376.6
799.964	1725
800.402	1789.1
800.84	668.6
801.278	262.2
801.716	162.7
802.154	133.4
802.592	129.8
803.03	122.8
803.468	112.7
803.906	126.9
804.344	126.1
804.782	127.5
805.22	117.6
805.658	106.2
806.096	123.4
806.533	137.1
806.971	140.9
807.409	182.4
807.847	266.5
808.284	549.1
808.722	1580
809.16	2894.7
809.597	2673.9
810.035	4727.1
810.472	5240.9
810.91	1852.8
811.347	699.6
811.785	343.4
812.222	222.2
812.66	159.8
813.097	143.2
813.535	118.6
813.972	114.5
814.409	100.6
814.846	93.9
815.284	99
815.721	90.2
816.158	88.3
816.595	96.1
817.032	152.4
817.47	172.1
817.907	144.1
818.344	124
818.781	100.1
819.218	86.7
819.655	101.2
820.092	165.9
820.529	183.7
820.966	159
821.403	118.4
821.839	93.7
822.276	89.5
822.713	105.2
823.15	114.9
823.587	95.1
824.023	120.9
824.46	252.7
824.897	764.3
825.333	1210.1
825.77	513.6
826.206	204
826.643	115.2
827.08	86.8
827.516	69.3
827.953	65.7
828.389	65.4
828.825	60.6
829.262	53.6
829.698	49.9
830.135	56.1
830.571	53.9
831.007	52.1
831.443	50.2
831.88	54.3
832.316	48.5
832.752	53.1
833.188	53.5
833.624	52.7
834.06	58.9
834.497	58.2
834.933	65.1
835.369	65.8
835.805	58.5
836.241	63
836.677	63.1
837.112	67.4
837.548	87.7
837.984	112.4
838.42	164.3
838.856	412.9
839.292	1294.5
839.727	2061.2
840.163	946.5
840.599	779.1
841.034	1756.8
841.47	1913.9
841.906	684.3
842.341	289.2
842.777	192.2
843.212	265.7
843.648	267.5
844.083	127.8
844.519	80.9
844.954	73.8
845.39	50.7
845.825	48.3
846.261	45.4
846.696	44.8
847.131	48.2
847.566	45.7
848.002	47.7
848.437	49.8
848.872	49.1
849.307	54.5
849.742	69.8
850.177	145.3
850.613	474.6
851.048	777.8
851.483	334.1
851.918	131.4
852.353	72
852.788	50.3
853.223	47.4
853.657	47.4
854.092	41.7
854.527	32.4
854.962	35.2
855.397	35.4
855.832	41.9
856.266	35.1
856.701	33.5
857.136	32.2
857.57	26.6
858.005	45
858.44	50
858.874	35.1
859.309	40.8
859.743	25.4
860.178	37.9
860.612	40
861.047	47.7
861.481	59.1
861.915	62.8
862.35	44.1
862.784	24.7
863.218	36.4
863.653	29.1
864.087	40.8
864.521	47.1
864.955	57.5
865.39	130.3
865.824	153.8
866.258	102.7
866.692	150.9
867.126	157.2
867.56	95.7
867.994	47.1
868.428	29.9
868.862	43.6
869.296	46.7
869.73	47.1
870.164	45.8
870.598	38.8
871.031	30.1
871.465	25
871.899	29.5
872.333	20.9
872.766	25.1
873.2	18.9
873.634	22.6
874.067	21.4
874.501	16.4
874.935	28
875.368	29.3
875.802	19.8
876.235	19.4
876.669	22.4
877.102	19.7
877.535	21.4
877.969	16.7
878.402	23
878.836	16.2
879.269	18.4
879.702	17.2
880.135	18.6
880.569	19.4
881.002	29
881.435	22.3
881.868	18.1
882.301	19.2
882.734	15
883.167	18.9
883.601	9.1
884.034	16.4
884.467	11.1
884.899	11.9
885.332	12.6
885.765	10.7
886.198	12.4
886.631	8.3
887.064	14.5
887.497	25.7
887.929	19.4
888.362	13.4
888.795	9
889.228	13.8
889.66	17.3
890.093	12.4
890.526	11
890.958	14.1
891.391	14.9
891.823	21.8
892.256	7.2
892.688	11.9
893.121	5.9
893.553	12.8
893.985	26.9
894.418	18
894.85	9.4
895.282	11.1
895.715	14.4
896.147	18
896.579	16.2
897.011	15.3
897.444	13.7
897.876	10
898.308	11.3
898.74	16.8
899.172	15.1
899.604	18
900.036	12.3
900.468	18.3
900.9	15.2
901.332	17.2
901.764	12.7
902.196	11.9
902.628	15.3
903.06	12.9
903.491	25.7
903.923	18.5
904.355	20.4
904.787	20
905.218	17
905.65	17.3
906.082	9
906.513	14.4
906.945	11.6
907.376	11.6
907.808	21.5
908.239	18.5
908.671	17.9
909.102	12.8
909.534	22.3
909.965	35.6
910.397	82.4
910.828	267.3
911.259	430.5
911.691	189.2
912.122	89.4
912.553	49.1
912.984	28.7
913.415	23.1
913.847	21.4
914.278	7.4
914.709	15.4
915.14	13.2
915.571	19.8
916.002	3.9
916.433	11.1
916.864	20.5
917.295	14
917.726	17.8
918.157	12.8
918.587	25.1
919.018	14
919.449	13.8
919.88	25.3
920.311	28.4
920.741	39.1
921.172	151.5
921.603	130.7
922.033	61.2
922.464	43.7
922.895	13.5
923.325	14.7
923.756	15
924.186	8.1
924.617	20.2
925.047	33.2
925.478	42.1
925.908	36.3
926.338	20.6
926.769	16.9
927.199	12.7
927.629	4.1
928.06	16.4
928.49	8.6
928.92	10.9
929.35	2.7
929.78	13.1
930.21	1.4
930.641	7
931.071	1.6
931.501	0.6
931.931	5.3
932.361	3.5
932.791	4.2
933.221	3.3
933.651	4.3
934.08	14.1
934.51	33.7
934.94	8.2
935.37	7.2
935.8	10.6
936.229	3.4
936.659	3.4
937.089	0.2
937.519	10.3
937.948	19.5
938.378	16.5
938.807	3.2
939.237	3.8
939.666	10.9
940.096	-6.7
940.525	4.3
940.955	2.2
941.384	2.7
941.814	-6.4
942.243	-3.4
942.672	3
943.102	-7.6
943.531	0.8
943.96	-0.3
944.39	0.1
944.819	-4.2
945.248	1.4
945.677	0.6
946.106	6
946.535	1
946.964	-1.4
947.393	-2
947.822	1.2
948.251	-9.6
948.68	1.2
949.109	4.9
949.538	3.6
949.967	-2.3
950.396	-0.2
950.825	-4.4
951.254	1.1
951.682	-8.5
952.111	5.5
952.54	3.3
952.969	-5.9
953.397	-7.9
953.826	1.5
954.254	-6.5
954.683	1.7
955.112	1.2
955.54	5.8
955.969	5.8
956.397	0.3
956.826	-0.6
957.254	4.4
957.682	0.4
958.111	5.6
958.539	2.5
958.967	-5.7
959.396	-0
959.824	-5
960.252	6.1
960.68	-3.4
961.109	1.4
961.537	-5.5
961.965	-0.4
962.393	-0.7
962.821	-1.4
963.249	-0.6
963.677	5.3
964.105	0.7
964.533	32.1
964.961	38
965.389	17.9
965.817	7.1
966.245	-3.5
966.672	0.8
967.1	-6.3
967.528	2.1
967.956	-4
968.383	2.5
968.811	-1.6
969.239	-1.5
969.666	-4.4
970.094	1.4
970.522	-2.6
970.949	-0.4
971.377	-0.4
971.804	0.8
972.232	-2
972.659	3.1
973.087	-5.7
973.514	-6
973.941	-3.4
974.369	3.5
974.796	11.5
975.223	-1.7
975.651	-7.6
976.078	5.5
976.505	-3.1
976.932	2.4
977.359	13
977.786	15.4
978.214	1.1
978.641	-5.4
979.068	-5.7
979.495	-6.9
979.922	1.8
980.349	0.8
980.776	4.6
981.202	-1.2
981.629	5.8
982.056	1.9
982.483	-7
982.91	5.6
983.337	-7.1
983.763	3.2
984.19	-1.2
984.617	-4.2
985.043	-3.8
985.47	-2.2
985.897	0.6
986.323	-13.9
986.75	0.8
987.176	1
987.603	1.7
988.029	2.6
988.456	1.8
988.882	2.8
989.308	-2.6
989.735	-6
990.161	-2.1
990.587	-8.9
991.014	-4.1
991.44	4
991.866	0.4
992.292	-1.9
992.719	-5.5
993.145	0.6
993.571	-6
993.997	-3.5
994.423	1.9
994.849	-8.3
995.275	2.8
995.701	-3.2
996.127	-2.7
996.553	1.5
996.979	-3.1
997.405	-3
997.83	-7.8
998.256	-8
998.682	-9.7
999.108	-8.5
999.534	-2.4
999.959	0.7
1000.385	-2.4
1000.811	3.8
1001.236	-10.2
1001.662	-7
1002.087	-2.1
1002.513	-3.3
1002.938	2.7
1003.364	3.2
1003.789	2.3
1004.215	4.6
1004.64	-9.9
1005.066	1.1
1005.491	5.7
1005.916	-2.2
1006.342	-1.6
1006.767	-5.6
1007.192	6.8
1007.617	-3.8
1008.042	-7.1
1008.468	-5.8
1008.893	-3.7
1009.318	-8.4
1009.743	-2.8
1010.168	5.8
1010.593	-1.3
1011.018	-8.5
1011.443	-3.5
1011.868	0.1
1012.293	-3.5
1012.718	-5.1
1013.143	2.7
1013.567	1.1
1013.992	2.2
1014.417	-15.5
1014.842	3.9
1015.267	-3.6
1015.691	0.3
1016.116	3.4
1016.541	2.1
1016.965	3.4
1017.39	1.7
1017.814	0.1
1018.239	-2.5
1018.663	-8.5
1019.088	-5.7
1019.512	-4.3
1019.937	-2.6
1020.361	-8.5
1020.785	-8.8
1021.21	1.2
1021.634	-5.2
1022.058	1.8
1022.483	4.5
1022.907	-6.4
1023.331	-9
1023.755	-4.6
1024.179	-7
1024.604	-15.1
1025.028	-5.2
1025.452	-3.1
1025.876	-2.6
1026.3	-0.4
1026.724	-4.6
1027.148	-2.7
1027.572	-7.5
1027.996	-6.6
1028.42	1.5
1028.843	-2.5
1029.267	-8.5
1029.691	-1.1
1030.115	-11
1030.539	-5.2
1030.962	-3.8
1031.386	-10.2
1031.81	-0.5
1032.233	-2
1032.657	-3.4
1033.08	-7.3
1033.504	-5.7
1033.927	-5.1
1034.351	-1.5
1034.774	-2
1035.198	-3.1
1035.621	-6.9
1036.045	-6.8
1036.468	-1.6
1036.891	-7.9
1037.315	-6.4
1037.738	-10.4
1038.161	-1.9
1038.584	-7.8
1039.008	-6.5
1039.431	-7.8
1039.854	-5
1040.277	-4.4
1040.7	-8.6
1041.123	0.9
1041.546	-7.9
1041.969	-8.6
1042.392	-6.9
1042.815	-0.9
1043.238	-2.7
1043.661	4.4
1044.084	-0.5
1044.507	-4.9
1044.93	-8.9
1045.352	1.4
1045.775	-1.5
1046.198	-3.2
1046.621	-3.3
1047.043	3.4
1047.466	2.9
1047.889	-3.2
1048.311	-3.7
1048.734	-3.3
1049.156	-2.6
1049.579	-7.1
1050.001	-4.4
1050.424	-4.6
1050.846	-7.3
1051.269	0.7
1051.691	-10.5
1052.113	-5.3
1052.536	-0.6
1052.958	-3
1053.38	-5.7
1053.802	-15.3
1054.225	1.5
1054.647	-9.2
1055.069	-12.1
1055.491	0.1
1055.913	-4.5
1056.335	2.2
1056.757	-5.4
1057.179	-8.8
1057.601	-3
1058.023	-5
1058.445	-7.6
1058.867	-3.2
1059.289	-8.1
1059.711	-8.6
1060.133	-2.4
1060.555	-0.4
1060.976	-1.7
1061.398	-5.8
1061.82	-14.7
1062.241	-5.8
1062.663	-10.8
1063.085	-5.2
1063.506	-2.4
1063.928	-3.8
1064.35	-1.8
1064.771	-9.9
1065.193	-1.2
1065.614	-12
1066.035	-4.5
1066.457	-9.6
1066.878	-3.3
1067.3	-8
1067.721	-4.3
1068.142	-3.1
1068.564	-1.1
1068.985	-5.7
1069.406	-1.2
1069.827	-0.8
1070.248	-2.9
1070.67	-8.1
1071.091	-9.3
1071.512	-2.7
1071.933	-5.3
1072.354	-12
1072.775	-5.5
1073.196	-10.2
1073.617	-0.9
1074.038	-7.2
1074.459	-5.5
1074.88	-7.7
1075.3	-1.8
1075.721	-3.8
1076.142	-4.2
1076.563	0.6
1076.983	-10.8
1077.404	-8.7
1077.825	-8.3
1078.246	-6.6
1078.666	-5.4
1079.087	-8.2
1079.507	-5.3
1079.928	-3.1
1080.348	-0.4
1080.769	-3.4
1081.189	-0.3
1081.61	-3.3
1082.03	-7.1
1082.451	-5.4
1082.871	-1.2
1083.291	-3.3
1083.711	-8.7
1084.132	-0.9
1084.552	-5.1
1084.972	-5.1
1085.392	-6.6
1085.813	-13.7
1086.233	-2.9
1086.653	-9.2
1087.073	-3.8
1087.493	-6.4
1087.913	-7.6
1088.333	-13.7
1088.753	0.7
1089.173	4.2
1089.593	-9.8
1090.013	-0.9
1090.433	-0.6
1090.852	-4.8
1091.272	-4.8
1091.692	-2.3
1092.112	-4.8
1092.531	-7.4
1092.951	-9.4
1093.371	1.5
1093.79	-0.3
1094.21	-4.9
1094.63	-2.9
1095.049	-2.8
1095.469	-2.4
1095.888	-5.5
1096.308	0.5
1096.727	4.8
1097.146	-7.1
1097.566	-0.9
1097.985	-7.6
1098.405	-3.6
1098.824	-5.6
1099.243	-11.7
1099.662	-13.7
1100.082	-1.8
1100.501	-3.9
1100.92	-7.8
1101.339	-2.8
1101.758	-4.9
