Data from 20171114-ORNL-Ar_H_NY_Subt18_08-06-31-380.txt Node
Date: Tue Nov 14 08:06:31 EST 2017
User: Ender
Spectrometer: HR+D1039
Trigger mode: 0
Integration Time (sec): 2.730000E-2
Scans to average: 10
Electric dark correction enabled: true
Nonlinearity correction enabled: false
Boxcar width: 0
XAxis mode: Wavelengths
Number of Pixels in Spectrum: 2048
>>>>>Begin Spectral Data<<<<<
187.836	-4.55
188.309	-4.55
188.782	-4.55
189.255	0.65
189.728	-3.15
190.201	7.35
190.674	-2.05
191.147	0.05
191.619	-3.85
192.092	-1.85
192.565	6.15
193.038	-2.55
193.511	4.35
193.984	1.05
194.456	1.55
194.929	-0.15
195.402	-0.95
195.874	-2.05
196.347	1.05
196.82	-6.95
197.292	7.95
197.765	-5.25
198.237	-7.75
198.71	1.75
199.182	1.75
199.655	6.75
200.127	1.55
200.6	-0.35
201.072	5.05
201.544	-6.55
202.017	3.35
202.489	5.65
202.961	-0.25
203.433	0.25
203.906	-3.75
204.378	-6.65
204.85	-8.35
205.322	-5.55
205.794	-2.25
206.266	-0.55
206.739	-10.55
207.211	3.55
207.683	-5.45
208.155	0.85
208.627	-1.55
209.099	0.75
209.57	-4.15
210.042	-5.55
210.514	-0.05
210.986	-6.25
211.458	-3.95
211.93	-2.35
212.402	5.85
212.873	-4.25
213.345	-12.05
213.817	-8.25
214.288	-2.55
214.76	-3.55
215.232	-4.35
215.703	-1.05
216.175	0.75
216.646	-2.65
217.118	-9.55
217.589	-4.05
218.061	-2.75
218.532	-2.75
219.004	-2.15
219.475	0.75
219.946	-1.15
220.418	-0.55
220.889	4.65
221.36	-1.15
221.832	-2.95
222.303	-7.35
222.774	3.35
223.245	-1.85
223.717	-8.25
224.188	-5.35
224.659	-8.55
225.13	-2.85
225.601	-2.35
226.072	2.95
226.543	-0.45
227.014	0.45
227.485	4.45
227.956	-0.65
228.427	4.15
228.898	-2.75
229.369	5.05
229.839	-5.35
230.31	-1.45
230.781	2.15
231.252	-5.15
231.722	0.85
232.193	0.25
232.664	4.95
233.135	5.65
233.605	-0.45
234.076	-4.45
234.546	-2.95
235.017	2.45
235.487	-2.55
235.958	-3.15
236.428	-5.45
236.899	4.75
237.369	-1.25
237.84	-1.95
238.31	1.65
238.78	4.05
239.251	2.65
239.721	2.55
240.191	4.15
240.662	-1.45
241.132	4.45
241.602	-9.45
242.072	2.55
242.542	4.55
243.013	1.65
243.483	8.95
243.953	3.15
244.423	3.45
244.893	-3.65
245.363	8.45
245.833	-0.35
246.303	1.05
246.773	6.65
247.243	4.85
247.712	-1.95
248.182	9.95
248.652	7.15
249.122	-0.75
249.592	12.05
250.061	20.75
250.531	30.65
251.001	14.45
251.471	17.75
251.94	19.25
252.41	4.45
252.879	4.95
253.349	11.75
253.818	12.65
254.288	8.15
254.757	8.05
255.227	-0.75
255.696	8.85
256.166	8.75
256.635	10.35
257.105	8.45
257.574	3.45
258.043	5.95
258.513	12.35
258.982	23.95
259.451	8.05
259.92	16.85
260.389	4.35
260.859	12.55
261.328	15.35
261.797	26.15
262.266	9.55
262.735	8.65
263.204	5.55
263.673	-1.45
264.142	7.85
264.611	-0.55
265.08	4.35
265.549	4.05
266.018	2.85
266.487	1.35
266.955	-2.35
267.424	-0.55
267.893	7.35
268.362	3.95
268.83	1.05
269.299	16.05
269.768	7.75
270.236	6.95
270.705	7.15
271.174	3.45
271.642	15.05
272.111	10.25
272.579	11.05
273.048	18.75
273.516	31.35
273.985	25.65
274.453	21.85
274.922	18.85
275.39	13.65
275.858	3.95
276.327	11.95
276.795	24.25
277.263	8.55
277.731	30.35
278.2	50.45
278.668	63.85
279.136	55.45
279.604	14.15
280.072	20.35
280.54	10.95
281.008	12.15
281.477	19.95
281.945	17.65
282.413	12.75
282.881	13.25
283.348	5.65
283.816	21.15
284.284	20.55
284.752	21.95
285.22	11.55
285.688	14.15
286.156	15.65
286.623	38.05
287.091	51.15
287.559	29.25
288.026	20.35
288.494	13.45
288.962	4.75
289.429	8.75
289.897	16.35
290.364	19.65
290.832	21.15
291.3	14.85
291.767	22.95
292.234	18.45
292.702	16.15
293.169	19.15
293.637	26.45
294.104	23.25
294.571	10.15
295.039	11.65
295.506	17.35
295.973	17.15
296.44	15.65
296.908	27.05
297.375	18.15
297.842	19.95
298.309	18.95
298.776	12.85
299.243	20.95
299.71	15.65
300.177	24.65
300.644	21.55
301.111	22.55
301.578	23.65
302.045	24.65
302.512	20.45
302.979	23.75
303.446	16.95
303.913	18.15
304.379	19.25
304.846	28.05
305.313	25.55
305.78	25.05
306.246	28.95
306.713	20.25
307.18	31.25
307.646	21.65
308.113	26.35
308.579	24.15
309.046	31.25
309.512	26.75
309.979	19.35
310.445	29.25
310.912	27.65
311.378	40.45
311.845	26.65
312.311	34.95
312.777	30.95
313.244	31.95
313.71	39.45
314.176	33.85
314.642	38.55
315.109	29.05
315.575	35.55
316.041	35.25
316.507	38.55
316.973	40.95
317.439	33.75
317.905	38.45
318.371	34.45
318.837	33.85
319.303	34.55
319.769	38.85
320.235	34.95
320.701	36.15
321.167	40.65
321.633	38.15
322.099	42.05
322.564	44.85
323.03	41.05
323.496	33.85
323.962	43.45
324.427	39.75
324.893	47.45
325.359	38.35
325.824	41.95
326.29	43.95
326.755	35.95
327.221	38.65
327.686	39.15
328.152	48.75
328.617	41.15
329.083	50.35
329.548	49.95
330.014	49.15
330.479	43.85
330.944	43.25
331.41	48.75
331.875	48.55
332.34	48.55
332.805	49.55
333.271	51.35
333.736	43.85
334.201	56.35
334.666	50.65
335.131	55.85
335.596	50.65
336.061	48.25
336.526	48.45
336.991	52.65
337.456	55.65
337.921	46.05
338.386	41.15
338.851	45.55
339.316	51.75
339.781	46.65
340.246	51.55
340.711	52.25
341.175	52.85
341.64	46.85
342.105	46.35
342.569	56.05
343.034	60.15
343.499	54.45
343.963	56.05
344.428	62.75
344.893	65.65
345.357	65.35
345.822	61.65
346.286	63.75
346.751	72.85
347.215	65.65
347.679	75.15
348.144	95.45
348.608	86.05
349.073	71.75
349.537	73.55
350.001	79.75
350.465	93.45
350.93	81.65
351.394	83.55
351.858	73.55
352.322	87.35
352.786	84.85
353.25	102.55
353.715	113.25
354.179	110.15
354.643	129.75
355.107	130.85
355.571	105.65
356.035	107.25
356.498	123.85
356.962	130.35
357.426	138.95
357.89	119.95
358.354	92.95
358.818	84.35
359.281	80.45
359.745	83.05
360.209	74.95
360.673	75.15
361.136	85.35
361.6	84.05
362.064	83.85
362.527	85.45
362.991	93.45
363.454	84.55
363.918	80.65
364.381	82.25
364.845	89.45
365.308	88.15
365.772	92.45
366.235	83.95
366.698	85.35
367.162	86.35
367.625	95.45
368.088	92.75
368.552	88.65
369.015	94.75
369.478	92.75
369.941	97.25
370.404	98.85
370.867	110.95
371.331	106.55
371.794	124.65
372.257	118.45
372.72	122.45
373.183	115.55
373.646	108.75
374.109	106.55
374.572	109.55
375.035	114.25
375.497	111.75
375.96	113.65
376.423	105.35
376.886	118.85
377.349	113.45
377.811	107.25
378.274	105.15
378.737	108.45
379.199	114.35
379.662	115.45
380.125	120.85
380.587	122.85
381.05	120.45
381.512	141.35
381.975	140.25
382.437	135.65
382.9	133.15
383.362	141.95
383.825	151.65
384.287	149.65
384.75	141.65
385.212	145.05
385.674	141.45
386.136	144.25
386.599	135.15
387.061	123.55
387.523	129.25
387.985	139.45
388.447	153.45
388.91	147.85
389.372	165.65
389.834	155.35
390.296	149.75
390.758	155.95
391.22	171.55
391.682	218.05
392.144	314.75
392.606	236.35
393.068	173.75
393.529	176.15
393.991	155.95
394.453	154.75
394.915	158.45
395.377	203.05
395.838	230.25
396.3	164.75
396.762	147.25
397.224	135.05
397.685	136.05
398.147	132.45
398.608	134.15
399.07	133.95
399.531	141.25
399.993	146.45
400.454	152.85
400.916	149.35
401.377	143.45
401.839	153.45
402.3	154.85
402.762	166.55
403.223	186.75
403.684	181.55
404.145	161.45
404.607	164.55
405.068	171.05
405.529	180.15
405.99	188.75
406.451	179.75
406.913	177.55
407.374	168.55
407.835	166.05
408.296	174.45
408.757	170.45
409.218	192.95
409.679	186.25
410.14	181.35
410.601	178.15
411.062	187.45
411.522	191.35
411.983	192.35
412.444	184.35
412.905	180.85
413.366	187.55
413.826	195.95
414.287	222.25
414.748	261.75
415.208	250.05
415.669	208.85
416.13	211.45
416.59	206.55
417.051	221.35
417.511	223.05
417.972	239.25
418.432	253.95
418.893	293.55
419.353	258.15
419.814	201.45
420.274	183.75
420.734	187.65
421.195	207.85
421.655	202.95
422.115	200.55
422.576	198.85
423.036	201.55
423.496	217.85
423.956	221.55
424.416	227.65
424.876	272.55
425.336	270.95
425.797	264.85
426.257	262.35
426.717	250.25
427.177	234.25
427.637	238.55
428.097	238.55
428.556	254.55
429.016	282.05
429.476	273.75
429.936	287.45
430.396	288.85
430.856	305.05
431.315	314.95
431.775	367.15
432.235	394.45
432.694	363.65
433.154	372.85
433.614	403.45
434.073	349.25
434.533	292.95
434.993	287.05
435.452	294.95
435.912	307.35
436.371	299.15
436.83	288.75
437.29	278.85
437.749	253.45
438.209	253.95
438.668	275.05
439.127	294.85
439.587	276.05
440.046	258.95
440.505	266.75
440.964	288.75
441.424	329.75
441.883	310.55
442.342	267.05
442.801	234.95
443.26	228.45
443.719	227.95
444.178	224.55
444.637	212.65
445.096	223.25
445.555	233.25
446.014	233.25
446.473	232.15
446.932	240.25
447.391	229.65
447.849	226.35
448.308	217.75
448.767	227.55
449.226	241.85
449.685	232.75
450.143	253.75
450.602	245.05
451.061	233.75
451.519	242.35
451.978	239.15
452.436	242.55
452.895	236.25
453.353	252.15
453.812	241.15
454.27	241.85
454.729	248.45
455.187	239.25
455.646	251.85
456.104	251.55
456.562	272.55
457.021	273.15
457.479	266.35
457.937	277.95
458.395	273.05
458.854	259.05
459.312	270.15
459.77	280.85
460.228	262.45
460.686	245.45
461.144	261.65
461.602	253.75
462.06	253.75
462.518	255.95
462.976	257.95
463.434	265.35
463.892	270.75
464.35	278.05
464.808	293.55
465.266	274.75
465.724	281.15
466.181	273.25
466.639	270.45
467.097	295.45
467.555	311.25
468.012	309.25
468.47	314.95
468.928	342.05
469.385	347.75
469.843	363.95
470.3	352.85
470.758	371.95
471.215	393.95
471.673	420.15
472.13	416.15
472.588	433.85
473.045	380.85
473.503	377.65
473.96	399.85
474.417	425.55
474.875	447.95
475.332	488.35
475.789	473.45
476.246	472.85
476.704	496.85
477.161	518.75
477.618	537.95
478.075	577.15
478.532	636.15
478.989	703.15
479.446	825.05
479.903	790.55
480.36	833.75
480.817	881.15
481.274	1001.25
481.731	1090.85
482.188	1201.35
482.645	1331.65
483.102	1444.65
483.558	1582.35
484.015	1634.15
484.472	1610.65
484.929	1565.45
485.385	1513.75
485.842	1470.15
486.299	1397.45
486.755	1325.35
487.212	1123.85
487.668	950.35
488.125	876.65
488.582	793.65
489.038	760.05
489.494	731.65
489.951	692.75
490.407	683.45
490.864	659.75
491.32	652.95
491.776	647.05
492.233	665.65
492.689	618.95
493.145	622.75
493.602	610.75
494.058	622.05
494.514	625.55
494.97	643.65
495.426	669.45
495.882	636.85
496.338	628.65
496.794	633.25
497.251	631.25
497.707	641.15
498.163	645.85
498.618	654.35
499.074	651.15
499.53	690.45
499.986	688.15
500.442	659.95
500.898	645.65
501.354	642.45
501.809	663.75
502.265	652.25
502.721	668.45
503.177	680.85
503.632	680.15
504.088	686.75
504.543	721.65
504.999	723.75
505.455	680.65
505.91	639.75
506.366	643.75
506.821	640.95
507.277	636.55
507.732	630.95
508.187	627.65
508.643	643.25
509.098	646.05
509.553	663.85
510.009	672.05
510.464	690.45
510.919	708.15
511.375	706.45
511.83	722.45
512.285	731.85
512.74	774.75
513.195	799.05
513.65	786.95
514.105	773.95
514.56	778.75
515.015	806.75
515.47	809.15
515.925	806.55
516.38	793.85
516.835	807.75
517.29	800.85
517.745	789.15
518.2	783.95
518.655	765.15
519.109	747.35
519.564	747.05
520.019	746.25
520.474	738.75
520.928	739.65
521.383	729.65
521.838	724.35
522.292	725.05
522.747	728.25
523.201	720.85
523.656	704.45
524.11	707.45
524.565	709.35
525.019	703.75
525.474	708.65
525.928	711.95
526.382	720.65
526.837	711.55
527.291	716.45
527.745	702.75
528.2	705.35
528.654	698.65
529.108	705.95
529.562	701.75
530.016	706.35
530.47	701.35
530.925	702.75
531.379	710.95
531.833	715.25
532.287	714.25
532.741	711.25
533.195	712.95
533.649	719.85
534.103	731.65
534.556	714.25
535.01	728.55
535.464	722.65
535.918	730.05
536.372	727.35
536.826	723.05
537.279	714.55
537.733	716.35
538.187	718.45
538.64	725.95
539.094	736.95
539.548	749.75
540.001	742.65
540.455	732.05
540.908	745.85
541.362	751.75
541.815	760.95
542.269	776.85
542.722	774.75
543.175	770.35
543.629	789.55
544.082	803.85
544.536	802.35
544.989	787.95
545.442	812.35
545.895	805.65
546.349	795.55
546.802	801.85
547.255	806.95
547.708	822.75
548.161	824.75
548.614	840.35
549.067	845.95
549.52	847.15
549.973	827.85
550.426	816.55
550.879	797.15
551.332	819.05
551.785	821.35
552.238	822.65
552.691	823.45
553.144	846.25
553.596	857.45
554.049	880.25
554.502	916.35
554.955	922.95
555.407	920.45
555.86	919.25
556.313	896.05
556.765	899.35
557.218	901.85
557.67	896.35
558.123	888.95
558.576	887.25
559.028	891.95
559.48	882.15
559.933	879.65
560.385	847.25
560.838	826.15
561.29	786.55
561.742	793.85
562.195	779.85
562.647	785.75
563.099	787.85
563.551	771.65
564.004	795.85
564.456	782.85
564.908	778.65
565.36	755.95
565.812	740.85
566.264	738.15
566.716	730.75
567.168	730.45
567.62	734.85
568.072	715.85
568.524	706.65
568.976	704.45
569.428	684.85
569.88	688.75
570.332	689.45
570.784	693.45
571.235	699.75
571.687	700.45
572.139	705.35
572.59	717.85
573.042	710.35
573.494	720.35
573.945	716.85
574.397	689.95
574.849	701.45
575.3	695.95
575.752	701.45
576.203	678.65
576.655	693.85
577.106	688.55
577.557	669.95
578.009	677.35
578.46	672.35
578.912	674.85
579.363	673.85
579.814	674.55
580.265	673.15
580.717	675.75
581.168	684.25
581.619	689.65
582.07	682.85
582.521	694.45
582.972	682.75
583.423	686.65
583.875	688.25
584.326	708.65
584.777	751.95
585.227	837.15
585.678	921.25
586.129	1029.75
586.58	1095.65
587.031	1187.35
587.482	1349.65
587.933	1534.05
588.384	1334.65
588.834	997.05
589.285	818.85
589.736	798.15
590.186	783.15
590.637	759.35
591.088	752.95
591.538	744.85
591.989	741.05
592.439	729.55
592.89	733.05
593.34	713.55
593.791	730.45
594.241	717.05
594.692	718.35
595.142	711.75
595.593	708.75
596.043	726.05
596.493	710.45
596.943	731.35
597.394	725.05
597.844	730.55
598.294	749.65
598.744	754.65
599.195	794.55
599.645	826.45
600.095	863.75
600.545	916.75
600.995	974.85
601.445	1025.75
601.895	1102.75
602.345	1155.35
602.795	1137.95
603.245	1073.45
603.695	1012.75
604.145	969.35
604.594	922.25
605.044	858.65
605.494	797.85
605.944	762.05
606.393	745.15
606.843	739.75
607.293	736.15
607.743	748.85
608.192	756.05
608.642	760.35
609.091	778.75
609.541	778.35
609.99	782.65
610.44	776.05
610.889	724.35
611.339	704.95
611.788	696.55
612.238	704.45
612.687	717.15
613.136	723.05
613.586	745.05
614.035	741.75
614.484	773.65
614.933	770.55
615.383	764.95
615.832	746.75
616.281	740.45
616.73	694.35
617.179	674.45
617.628	657.75
618.077	635.45
618.526	634.85
618.975	624.15
619.424	622.35
619.873	619.45
620.322	629.55
620.771	613.35
621.22	609.15
621.669	601.95
622.118	595.05
622.567	592.35
623.015	575.15
623.464	576.65
623.913	557.25
624.361	557.95
624.81	557.05
625.259	562.95
625.707	564.05
626.156	565.85
626.604	574.75
627.053	573.55
627.501	564.55
627.95	576.55
628.398	586.75
628.847	571.75
629.295	574.95
629.744	571.55
630.192	575.75
630.64	574.85
631.089	581.35
631.537	583.65
631.985	595.85
632.433	610.45
632.881	618.05
633.33	674.35
633.778	650.95
634.226	567.25
634.674	574.25
635.122	588.25
635.57	606.25
636.018	635.85
636.466	591.75
636.914	562.55
637.362	571.15
637.81	578.85
638.258	592.35
638.705	596.85
639.153	617.25
639.601	620.15
640.049	641.85
640.497	670.95
640.944	694.55
641.392	649.25
641.84	612.65
642.287	587.05
642.735	583.25
643.182	580.55
643.63	575.05
644.078	589.55
644.525	598.15
644.973	600.75
645.42	611.65
645.867	623.65
646.315	653.75
646.762	665.65
647.21	700.65
647.657	727.45
648.104	759.25
648.551	774.65
648.999	843.15
649.446	923.55
649.893	1012.75
650.34	1179.25
650.787	1420.85
651.234	1735.95
651.682	2296.05
652.129	3131.25
652.576	4529.55
653.023	6679.05
653.47	9166.75
653.917	11468.85
654.363	13227.65
654.81	14587.65
655.257	13904.35
655.704	9068.65
656.151	5369.65
656.598	3468.25
657.044	2460.15
657.491	1889.35
657.938	1507.45
658.385	1258.75
658.831	1092.25
659.278	979.85
659.724	867.05
660.171	798.45
660.618	726.05
661.064	698.35
661.511	677.65
661.957	651.85
662.404	649.15
662.85	656.95
663.296	627.85
663.743	570.55
664.189	551.55
664.635	530.95
665.082	533.55
665.528	529.25
665.974	522.45
666.42	506.25
666.867	506.55
667.313	496.75
667.759	486.65
668.205	482.45
668.651	494.45
669.097	487.85
669.543	501.75
669.989	475.85
670.435	455.45
670.881	443.75
671.327	449.55
671.773	468.85
672.219	500.45
672.665	548.05
673.11	579.75
673.556	628.95
674.002	659.85
674.448	659.35
674.893	551.25
675.339	481.55
675.785	437.75
676.23	415.85
676.676	395.45
677.122	384.95
677.567	378.35
678.013	375.65
678.458	362.55
678.904	360.15
679.349	353.05
679.794	351.95
680.24	352.65
680.685	349.15
681.131	351.15
681.576	352.05
682.021	355.95
682.466	356.35
682.912	344.65
683.357	348.35
683.802	381.05
684.247	411.05
684.692	467.95
685.137	499.15
685.583	536.95
686.028	560.25
686.473	521.65
686.918	449.55
687.363	416.85
687.807	397.25
688.252	365.15
688.697	352.35
689.142	346.15
689.587	340.95
690.032	325.65
690.477	340.75
690.921	359.05
691.366	382.45
691.811	400.75
692.255	439.85
692.7	458.25
693.145	501.85
693.589	697.95
694.034	1129.65
694.478	1527.65
694.923	1728.45
695.367	2260.45
695.812	1194.65
696.256	504.15
696.701	375.85
697.145	350.85
697.59	328.65
698.034	330.35
698.478	334.95
698.922	328.15
699.367	332.65
699.811	347.45
700.255	362.55
700.699	383.45
701.143	434.05
701.588	474.55
702.032	521.35
702.476	523.45
702.92	500.15
703.364	492.55
703.808	645.35
704.252	1035.25
704.696	1451.05
705.14	1677.95
705.584	2137.05
706.027	1066.85
706.471	523.45
706.915	395.95
707.359	352.55
707.803	320.85
708.246	313.15
708.69	306.95
709.134	318.75
709.577	305.05
710.021	323.85
710.465	302.65
710.908	307.65
711.352	302.25
711.795	311.05
712.239	345.75
712.682	389.45
713.126	422.75
713.569	466.45
714.012	374.55
714.456	327.45
714.899	309.65
715.342	285.05
715.786	259.95
716.229	261.35
716.672	252.65
717.115	248.85
717.558	256.55
718.002	256.15
718.445	258.95
718.888	291.75
719.331	298.15
719.774	312.65
720.217	312.95
720.66	279.55
721.103	272.55
721.546	260.45
721.989	257.85
722.432	231.65
722.874	240.25
723.317	233.35
723.76	242.45
724.203	254.65
724.645	314.25
725.088	446.45
725.531	575.55
725.974	654.35
726.416	543.85
726.859	309.05
727.301	246.35
727.744	240.75
728.187	237.15
728.629	235.85
729.071	252.55
729.514	254.75
729.956	268.75
730.399	282.35
730.841	290.65
731.283	268.95
731.726	266.15
732.168	265.65
732.61	268.65
733.053	290.75
733.495	318.25
733.937	358.65
734.379	389.45
734.821	427.75
735.263	541.55
735.705	839.15
736.148	1569.15
736.59	2574.15
737.032	3046.25
737.474	2454.25
737.916	809.05
738.357	429.85
738.799	328.75
739.241	308.25
739.683	283.35
740.125	296.05
740.567	300.75
741.008	310.55
741.45	310.95
741.892	317.75
742.334	341.45
742.775	359.65
743.217	339.65
743.658	275.85
744.1	260.25
744.542	262.45
744.983	318.05
745.425	343.85
745.866	332.65
746.307	285.95
746.749	287.95
747.19	318.25
747.632	451.25
748.073	872.55
748.514	1844.95
748.956	2839.25
749.397	3556.85
749.838	2945.55
750.279	2950.95
750.72	1483.35
751.162	552.45
751.603	321.75
752.044	255.25
752.485	217.05
752.926	213.25
753.367	196.05
753.808	192.95
754.249	186.55
754.69	184.15
755.131	183.85
755.572	186.85
756.013	186.75
756.453	185.75
756.894	192.85
757.335	190.45
757.776	201.15
758.216	198.85
758.657	199.45
759.098	200.45
759.538	226.15
759.979	269.35
760.42	372.95
760.86	697.85
761.301	1803.65
761.741	4405.55
762.182	6364.45
762.622	4495.15
763.063	1295.45
763.503	532.85
763.943	351.05
764.384	345.85
764.824	407.25
765.264	446.45
765.705	312.45
766.145	208.65
766.585	185.95
767.025	185.85
767.465	189.85
767.906	238.35
768.346	324.05
768.786	348.85
769.226	261.95
769.666	323.45
770.106	610.35
770.546	1550.35
770.986	2633.05
771.426	2353.15
771.866	780.45
772.306	322.25
772.745	209.25
773.185	176.95
773.625	176.35
774.065	165.45
774.505	204.65
774.944	312.75
775.384	688.55
775.824	1248.75
776.263	1214.45
776.703	510.65
777.142	224.05
777.582	163.55
778.021	142.65
778.461	140.05
778.9	142.55
779.34	138.95
779.779	124.05
780.219	113.65
780.658	118.25
781.097	114.55
781.537	119.75
781.976	108.55
782.415	108.05
782.855	102.75
783.294	109.65
783.733	109.05
784.172	113.45
784.611	100.75
785.05	111.15
785.489	118.95
785.928	114.55
786.367	122.75
786.806	125.05
787.245	128.35
787.684	138.05
788.123	146.95
788.562	136.45
789.001	127.55
789.44	123.05
789.879	111.05
790.317	128.65
790.756	131.75
791.195	133.75
791.634	155.65
792.072	200.75
792.511	370.65
792.95	1010.95
793.388	2126.85
793.827	1923.25
794.265	674.95
794.704	284.85
795.142	185.35
795.581	155.15
796.019	138.85
796.458	128.85
796.896	120.25
797.334	134.45
797.773	154.35
798.211	217.55
798.649	434.85
799.087	1015.75
799.526	1580.85
799.964	2001.55
800.402	1990.75
800.84	744.35
801.278	305.65
801.716	182.65
802.154	148.95
802.592	146.45
803.03	141.25
803.468	133.65
803.906	153.15
804.344	149.75
804.782	139.25
805.22	130.45
805.658	131.05
806.096	149.85
806.533	162.15
806.971	170.85
807.409	214.65
807.847	312.85
808.284	663.35
808.722	1840.15
809.16	3270.05
809.597	3096.75
810.035	5373.55
810.472	5712.45
810.91	2064.75
811.347	780.15
811.785	404.95
812.222	250.25
812.66	198.05
813.097	170.25
813.535	139.45
813.972	131.65
814.409	121.25
814.846	112.05
815.284	115.15
815.721	104.25
816.158	103.55
816.595	119.95
817.032	183.65
817.47	203.15
817.907	175.25
818.344	151.45
818.781	122.85
819.218	104.25
819.655	129.05
820.092	187.75
820.529	210.65
820.966	179.45
821.403	133.45
821.839	110.45
822.276	94.75
822.713	126.05
823.15	137.75
823.587	112.25
824.023	139.65
824.46	294.65
824.897	885.25
825.333	1346.95
825.77	564.95
826.206	225.65
826.643	137.85
827.08	95.75
827.516	91.85
827.953	78.45
828.389	79.55
828.825	71.45
829.262	69.35
829.698	65.95
830.135	58.75
830.571	66.75
831.007	59.65
831.443	65.55
831.88	67.85
832.316	61.25
832.752	65.25
833.188	66.85
833.624	62.75
834.06	69.75
834.497	70.05
834.933	72.55
835.369	77.35
835.805	67.15
836.241	81.65
836.677	76.65
837.112	93.75
837.548	100.75
837.984	130.85
838.42	202.35
838.856	493.95
839.292	1505.05
839.727	2290.35
840.163	1060.35
840.599	914.55
841.034	1994.65
841.47	2104.95
841.906	764.25
842.341	335.65
842.777	231.65
843.212	322.05
843.648	314.05
844.083	157.85
844.519	95.35
844.954	84.15
845.39	63.55
845.825	57.45
846.261	54.35
846.696	57.05
847.131	54.25
847.566	58.45
848.002	55.45
848.437	56.75
848.872	67.25
849.307	58.65
849.742	83.85
850.177	189.75
850.613	557.25
851.048	867.65
851.483	384.15
851.918	150.75
852.353	91.75
852.788	58.15
853.223	53.15
853.657	57.35
854.092	51.25
854.527	37.75
854.962	37.65
855.397	53.05
855.832	53.75
856.266	42.45
856.701	43.45
857.136	37.85
857.57	34.65
858.005	53.85
858.44	60.15
858.874	44.75
859.309	54.25
859.743	42.65
860.178	46.95
860.612	42.05
861.047	53.35
861.481	68.15
861.915	74.35
862.35	49.65
862.784	36.65
863.218	39.95
863.653	37.45
864.087	45.85
864.521	56.25
864.955	76.25
865.39	153.45
865.824	170.95
866.258	109.35
866.692	165.45
867.126	174.15
867.56	104.75
867.994	49.85
868.428	36.55
868.862	40.85
869.296	54.75
869.73	60.45
870.164	55.85
870.598	50.55
871.031	36.35
871.465	30.25
871.899	35.35
872.333	27.75
872.766	29.65
873.2	20.75
873.634	32.35
874.067	23.25
874.501	24.95
874.935	36.15
875.368	28.35
875.802	27.85
876.235	27.25
876.669	27.95
877.102	22.65
877.535	30.25
877.969	25.25
878.402	26.75
878.836	27.35
879.269	31.75
879.702	25.55
880.135	22.85
880.569	18.35
881.002	32.65
881.435	25.65
881.868	20.05
882.301	23.25
882.734	15.75
883.167	25.95
883.601	18.75
884.034	20.35
884.467	16.35
884.899	23.15
885.332	16.95
885.765	18.95
886.198	17.75
886.631	20.75
887.064	21.95
887.497	19.15
887.929	24.25
888.362	15.45
888.795	17.35
889.228	20.25
889.66	26.35
890.093	19.95
890.526	18.95
890.958	22.05
891.391	18.35
891.823	26.75
892.256	14.15
892.688	15.85
893.121	21.45
893.553	19.85
893.985	25.35
894.418	22.95
894.85	12.45
895.282	13.55
895.715	13.55
896.147	18.95
896.579	17.85
897.011	11.45
897.444	20.05
897.876	18.95
898.308	19.75
898.74	17.05
899.172	19.05
899.604	25.55
900.036	18.25
900.468	16.95
900.9	15.35
901.332	17.45
901.764	9.15
902.196	20.75
902.628	16.85
903.06	18.75
903.491	29.65
903.923	18.55
904.355	20.15
904.787	26.35
905.218	22.95
905.65	24.25
906.082	15.45
906.513	17.35
906.945	14.05
907.376	13.15
907.808	19.25
908.239	22.15
908.671	19.35
909.102	25.85
909.534	28.25
909.965	46.55
910.397	93.35
910.828	306.95
911.259	476.95
911.691	219.85
912.122	111.15
912.553	51.05
912.984	31.05
913.415	25.95
913.847	25.55
914.278	15.65
914.709	20.35
915.14	22.15
915.571	20.75
916.002	17.95
916.433	23.95
916.864	15.45
917.295	11.85
917.726	18.55
918.157	15.45
918.587	28.45
919.018	24.85
919.449	24.95
919.88	22.95
920.311	31.05
920.741	47.35
921.172	165.85
921.603	154.65
922.033	67.05
922.464	49.45
922.895	26.55
923.325	23.15
923.756	18.15
924.186	23.05
924.617	31.05
925.047	45.85
925.478	55.75
925.908	50.95
926.338	25.15
926.769	19.65
927.199	23.15
927.629	13.85
928.06	21.95
928.49	17.65
928.92	9.55
929.35	11.85
929.78	9.55
930.21	2.75
930.641	13.55
931.071	2.55
931.501	12.25
931.931	7.85
932.361	8.15
932.791	7.75
933.221	9.45
933.651	8.85
934.08	19.25
934.51	34.55
934.94	12.85
935.37	9.65
935.8	14.05
936.229	8.85
936.659	7.35
937.089	10.25
937.519	11.75
937.948	21.95
938.378	16.75
938.807	4.45
939.237	2.15
939.666	9.65
940.096	-2.75
940.525	1.05
940.955	1.85
941.384	-2.15
941.814	-4.95
942.243	-1.45
942.672	3.85
943.102	-1.65
943.531	2.05
943.96	5.25
944.39	4.95
944.819	2.85
945.248	-1.25
945.677	-0.15
946.106	6.25
946.535	6.85
946.964	0.95
947.393	5.75
947.822	1.35
948.251	-2.45
948.68	9.15
949.109	8.05
949.538	6.55
949.967	3.75
950.396	2.65
950.825	4.95
951.254	-3.25
951.682	1.95
952.111	7.75
952.54	6.65
952.969	-1.45
953.397	-3.55
953.826	1.35
954.254	-5.65
954.683	0.55
955.112	1.65
955.54	4.85
955.969	-3.15
956.397	2.95
956.826	-0.45
957.254	0.25
957.682	-2.25
958.111	5.75
958.539	-1.15
958.967	2.45
959.396	-1.95
959.824	-0.35
960.252	4.65
960.68	-2.65
961.109	3.65
961.537	2.75
961.965	1.55
962.393	5.15
962.821	-6.35
963.249	-1.65
963.677	2.05
964.105	3.95
964.533	42.75
964.961	41.75
965.389	20.55
965.817	9.25
966.245	3.75
966.672	1.35
967.1	-0.45
967.528	-0.85
967.956	-2.65
968.383	0.45
968.811	-0.55
969.239	-7.45
969.666	-1.75
970.094	-1.05
970.522	-1.05
970.949	0.95
971.377	-1.45
971.804	-3.15
972.232	-2.95
972.659	3.05
973.087	-2.65
973.514	-3.65
973.941	-4.45
974.369	1.75
974.796	1.85
975.223	-1.75
975.651	-4.65
976.078	8.85
976.505	2.25
976.932	2.15
977.359	13.45
977.786	19.95
978.214	-1.45
978.641	1.45
979.068	-1.95
979.495	-4.05
979.922	-0.05
980.349	1.45
980.776	3.85
981.202	1.05
981.629	7.25
982.056	6.45
982.483	3.95
982.91	6.25
983.337	-3.15
983.763	2.35
984.19	2.55
984.617	-6.15
985.043	-3.35
985.47	-3.35
985.897	-2.05
986.323	-2.65
986.75	7.05
987.176	5.25
987.603	1.85
988.029	4.85
988.456	-1.55
988.882	8.85
989.308	-1.65
989.735	-9.25
990.161	1.85
990.587	-4.35
991.014	1.75
991.44	5.95
991.866	1.15
992.292	-5.75
992.719	-0.75
993.145	8.25
993.571	-4.55
993.997	-3.05
994.423	-6.85
994.849	-2.75
995.275	0.95
995.701	2.15
996.127	-5.95
996.553	0.15
996.979	-6.25
997.405	-2.45
997.83	-3.55
998.256	-12.25
998.682	-0.95
999.108	-10.25
999.534	2.15
999.959	1.25
1000.385	3.35
1000.811	-0.85
1001.236	-6.75
1001.662	-5.75
1002.087	0.35
1002.513	2.65
1002.938	1.35
1003.364	0.35
1003.789	-4.75
1004.215	3.25
1004.64	-4.35
1005.066	6.25
1005.491	-2.65
1005.916	-2.55
1006.342	-6.55
1006.767	-12.65
1007.192	4.45
1007.617	-4.55
1008.042	-0.75
1008.468	-10.95
1008.893	-0.85
1009.318	-2.65
1009.743	-2.35
1010.168	4.55
1010.593	0.85
1011.018	-3.65
1011.443	-0.75
1011.868	-0.75
1012.293	-6.95
1012.718	-5.05
1013.143	-3.35
1013.567	4.25
1013.992	-2.05
1014.417	-14.75
1014.842	5.45
1015.267	-1.75
1015.691	0.85
1016.116	2.85
1016.541	0.95
1016.965	0.15
1017.39	6.55
1017.814	0.25
1018.239	-3.45
1018.663	-2.45
1019.088	-8.35
1019.512	3.85
1019.937	0.05
1020.361	1.35
1020.785	-4.15
1021.21	1.45
1021.634	-2.25
1022.058	0.35
1022.483	4.35
1022.907	-8.95
1023.331	1.35
1023.755	-7.15
1024.179	-3.45
1024.604	-2.75
1025.028	-7.05
1025.452	-4.95
1025.876	-3.05
1026.3	4.65
1026.724	-13.85
1027.148	-2.15
1027.572	-11.75
1027.996	-2.05
1028.42	-5.35
1028.843	-5.25
1029.267	-4.25
1029.691	4.95
1030.115	-5.05
1030.539	-6.75
1030.962	-4.75
1031.386	-11.95
1031.81	3.25
1032.233	-4.45
1032.657	-4.75
1033.08	-0.05
1033.504	-5.95
1033.927	-3.05
1034.351	-2.65
1034.774	-4.35
1035.198	-0.25
1035.621	-1.25
1036.045	-6.15
1036.468	6.15
1036.891	-9.85
1037.315	-5.85
1037.738	-4.05
1038.161	-3.35
1038.584	-2.05
1039.008	-5.15
1039.431	3.15
1039.854	-4.95
1040.277	-5.65
1040.7	-10.25
1041.123	5.15
1041.546	-6.65
1041.969	-2.55
1042.392	-0.45
1042.815	-2.55
1043.238	1.45
1043.661	-0.75
1044.084	-5.15
1044.507	-5.95
1044.93	-6.65
1045.352	-5.95
1045.775	-0.65
1046.198	-4.35
1046.621	-4.25
1047.043	5.25
1047.466	8.25
1047.889	-3.65
1048.311	-4.95
1048.734	-5.95
1049.156	-2.95
1049.579	-5.75
1050.001	-3.15
1050.424	2.95
1050.846	3.95
1051.269	-1.95
1051.691	-10.35
1052.113	-2.75
1052.536	0.65
1052.958	1.55
1053.38	0.25
1053.802	-9.95
1054.225	0.65
1054.647	-6.25
1055.069	-6.05
1055.491	-1.05
1055.913	-6.05
1056.335	-0.55
1056.757	-2.05
1057.179	-4.55
1057.601	-3.45
1058.023	-5.55
1058.445	-6.25
1058.867	-2.85
1059.289	-6.85
1059.711	-8.35
1060.133	-6.45
1060.555	-3.25
1060.976	-7.45
1061.398	-4.05
1061.82	-2.65
1062.241	-7.35
1062.663	-11.65
1063.085	0.55
1063.506	3.45
1063.928	0.15
1064.35	-5.05
1064.771	-6.25
1065.193	-2.35
1065.614	-13.55
1066.035	-0.15
1066.457	-3.25
1066.878	1.85
1067.3	-4.95
1067.721	-3.75
1068.142	-4.75
1068.564	-3.45
1068.985	-3.15
1069.406	-4.25
1069.827	-1.15
1070.248	2.75
1070.67	-7.75
1071.091	-7.75
1071.512	7.65
1071.933	-1.85
1072.354	-11.65
1072.775	-5.25
1073.196	-7.05
1073.617	1.05
1074.038	-6.95
1074.459	-3.65
1074.88	-11.95
1075.3	-5.25
1075.721	-4.75
1076.142	0.95
1076.563	3.95
1076.983	-11.05
1077.404	-4.25
1077.825	-14.85
1078.246	-1.85
1078.666	-8.85
1079.087	-4.25
1079.507	-14.15
1079.928	-0.45
1080.348	1.15
1080.769	-6.45
1081.189	2.75
1081.61	0.05
1082.03	-2.35
1082.451	-6.85
1082.871	-8.45
1083.291	-6.85
1083.711	-6.85
1084.132	-3.15
1084.552	-7.95
1084.972	-0.55
1085.392	-9.95
1085.813	-7.25
1086.233	-5.85
1086.653	1.45
1087.073	-8.75
1087.493	-6.45
1087.913	-7.35
1088.333	-7.35
1088.753	3.95
1089.173	0.05
1089.593	-3.95
1090.013	-2.45
1090.433	-1.65
1090.852	-3.85
1091.272	0.95
1091.692	-5.45
1092.112	-0.15
1092.531	-5.15
1092.951	-11.85
1093.371	-7.65
1093.79	0.35
1094.21	-1.75
1094.63	-8.35
1095.049	-2.85
1095.469	-3.25
1095.888	-4.55
1096.308	2.75
1096.727	4.05
1097.146	-3.95
1097.566	-1.45
1097.985	1.75
1098.405	-6.05
1098.824	-4.05
1099.243	-4.65
1099.662	-9.15
1100.082	-1.95
1100.501	-2.75
1100.92	3.15
1101.339	-6.15
1101.758	-1.05
