Data from 20171114-ORNL-Ar_H_NY_Subt18_08-03-48-959.txt Node
Date: Tue Nov 14 08:03:48 EST 2017
User: Ender
Spectrometer: HR+D1039
Trigger mode: 0
Integration Time (sec): 2.730000E-2
Scans to average: 10
Electric dark correction enabled: true
Nonlinearity correction enabled: false
Boxcar width: 0
XAxis mode: Wavelengths
Number of Pixels in Spectrum: 2048
>>>>>Begin Spectral Data<<<<<
187.836	-2.36
188.309	-2.36
188.782	-2.36
189.255	3.64
189.728	-3.46
190.201	0.24
190.674	2.14
191.147	1.84
191.619	-7.06
192.092	2.04
192.565	9.24
193.038	-0.66
193.511	2.04
193.984	-3.66
194.456	0.34
194.929	4.44
195.402	-5.46
195.874	-3.36
196.347	-4.26
196.82	-7.86
197.292	4.04
197.765	-2.36
198.237	-14.76
198.71	5.24
199.182	-1.36
199.655	1.14
200.127	4.04
200.6	1.34
201.072	-4.46
201.544	-6.26
202.017	-7.06
202.489	3.34
202.961	0.04
203.433	-3.36
203.906	-5.46
204.378	-2.26
204.85	-5.16
205.322	-9.86
205.794	-5.06
206.266	-0.46
206.739	-7.86
207.211	3.94
207.683	-10.56
208.155	-9.96
208.627	-6.56
209.099	-6.26
209.57	-10.06
210.042	-6.86
210.514	2.04
210.986	2.34
211.458	-7.66
211.93	-8.16
212.402	-0.16
212.873	-8.36
213.345	-8.16
213.817	-16.36
214.288	-4.66
214.76	-5.16
215.232	-6.06
215.703	-4.26
216.175	-0.76
216.646	-5.76
217.118	-5.06
217.589	-8.56
218.061	-4.76
218.532	-5.06
219.004	-6.16
219.475	-4.16
219.946	-4.46
220.418	-8.76
220.889	2.54
221.36	-1.16
221.832	-6.86
222.303	-7.26
222.774	4.94
223.245	-12.66
223.717	-3.86
224.188	-8.36
224.659	-9.66
225.13	-7.66
225.601	-5.96
226.072	2.64
226.543	1.14
227.014	3.14
227.485	-7.16
227.956	-8.66
228.427	-4.16
228.898	-0.06
229.369	3.64
229.839	-7.36
230.31	-8.46
230.781	-3.76
231.252	-5.36
231.722	-4.36
232.193	-6.86
232.664	2.04
233.135	-2.06
233.605	-6.86
234.076	-10.56
234.546	-0.86
235.017	1.94
235.487	-3.76
235.958	-1.06
236.428	-6.16
236.899	7.34
237.369	0.34
237.84	-9.16
238.31	-2.96
238.78	1.94
239.251	-11.36
239.721	-4.76
240.191	-4.86
240.662	-7.76
241.132	-0.76
241.602	-8.86
242.072	-6.56
242.542	3.84
243.013	-9.06
243.483	0.54
243.953	-2.26
244.423	6.34
244.893	-7.06
245.363	-1.06
245.833	6.14
246.303	-3.66
246.773	2.24
247.243	0.04
247.712	1.14
248.182	0.94
248.652	7.24
249.122	-5.86
249.592	-0.26
250.061	-3.46
250.531	11.04
251.001	-12.56
251.471	12.64
251.94	14.34
252.41	-0.06
252.879	-7.66
253.349	8.24
253.818	4.24
254.288	-0.56
254.757	-0.46
255.227	-4.86
255.696	-0.26
256.166	-2.16
256.635	2.34
257.105	1.34
257.574	-1.96
258.043	1.34
258.513	-4.86
258.982	-4.96
259.451	-10.36
259.92	-2.96
260.389	-2.56
260.859	6.84
261.328	-1.76
261.797	-4.16
262.266	-5.16
262.735	8.14
263.204	5.74
263.673	-1.26
264.142	-0.06
264.611	-12.86
265.08	0.24
265.549	-4.86
266.018	0.24
266.487	-2.56
266.955	-2.26
267.424	2.04
267.893	-0.36
268.362	-6.76
268.83	-0.16
269.299	4.94
269.768	3.24
270.236	-0.06
270.705	-4.46
271.174	0.44
271.642	-2.86
272.111	0.74
272.579	1.14
273.048	-1.76
273.516	5.24
273.985	4.34
274.453	4.64
274.922	6.74
275.39	0.94
275.858	-4.36
276.327	3.44
276.795	9.64
277.263	-1.06
277.731	8.24
278.2	7.04
278.668	5.74
279.136	6.74
279.604	-0.76
280.072	5.64
280.54	9.54
281.008	4.14
281.477	6.64
281.945	10.74
282.413	5.84
282.881	5.24
283.348	1.64
283.816	10.54
284.284	10.94
284.752	14.94
285.22	8.24
285.688	3.94
286.156	6.04
286.623	12.64
287.091	9.94
287.559	12.94
288.026	6.24
288.494	4.04
288.962	-3.86
289.429	1.44
289.897	9.14
290.364	8.14
290.832	8.74
291.3	5.94
291.767	5.24
292.234	4.64
292.702	3.84
293.169	13.64
293.637	12.94
294.104	9.14
294.571	-0.06
295.039	2.54
295.506	7.94
295.973	9.04
296.44	7.04
296.908	8.44
297.375	6.84
297.842	11.84
298.309	7.44
298.776	6.14
299.243	14.44
299.71	8.34
300.177	13.04
300.644	10.94
301.111	7.84
301.578	20.04
302.045	10.44
302.512	10.04
302.979	12.54
303.446	15.34
303.913	14.54
304.379	9.04
304.846	22.44
305.313	11.94
305.78	12.54
306.246	13.34
306.713	19.04
307.18	18.24
307.646	20.94
308.113	21.14
308.579	12.94
309.046	21.84
309.512	18.04
309.979	12.14
310.445	16.74
310.912	21.44
311.378	28.64
311.845	21.24
312.311	24.64
312.777	17.84
313.244	18.74
313.71	24.54
314.176	26.04
314.642	21.94
315.109	16.24
315.575	24.54
316.041	25.74
316.507	21.24
316.973	22.94
317.439	22.74
317.905	24.04
318.371	22.14
318.837	20.74
319.303	22.94
319.769	25.24
320.235	21.64
320.701	27.34
321.167	30.24
321.633	24.54
322.099	28.24
322.564	35.64
323.03	29.44
323.496	36.14
323.962	26.74
324.427	23.84
324.893	36.04
325.359	28.04
325.824	30.84
326.29	29.34
326.755	32.54
327.221	34.64
327.686	35.14
328.152	36.64
328.617	33.84
329.083	41.94
329.548	42.04
330.014	40.04
330.479	33.34
330.944	38.94
331.41	34.34
331.875	39.44
332.34	37.04
332.805	31.84
333.271	41.74
333.736	33.84
334.201	49.24
334.666	42.04
335.131	44.34
335.596	41.44
336.061	42.14
336.526	35.74
336.991	36.44
337.456	52.84
337.921	44.84
338.386	39.74
338.851	37.44
339.316	38.64
339.781	38.44
340.246	48.94
340.711	40.44
341.175	47.74
341.64	42.84
342.105	47.24
342.569	47.04
343.034	48.44
343.499	47.04
343.963	44.64
344.428	53.14
344.893	53.74
345.357	55.34
345.822	54.14
346.286	59.74
346.751	66.14
347.215	58.74
347.679	59.24
348.144	76.34
348.608	65.84
349.073	60.44
349.537	59.24
350.001	73.74
350.465	81.14
350.93	69.74
351.394	70.94
351.858	65.44
352.322	78.04
352.786	72.14
353.25	82.64
353.715	91.94
354.179	85.84
354.643	94.14
355.107	98.54
355.571	90.24
356.035	85.84
356.498	96.14
356.962	98.24
357.426	105.94
357.89	102.34
358.354	80.54
358.818	72.34
359.281	77.44
359.745	71.74
360.209	72.94
360.673	69.14
361.136	79.64
361.6	82.44
362.064	75.54
362.527	88.34
362.991	87.44
363.454	79.94
363.918	70.14
364.381	72.14
364.845	79.84
365.308	77.34
365.772	82.94
366.235	87.54
366.698	75.84
367.162	82.44
367.625	73.04
368.088	78.14
368.552	82.24
369.015	81.44
369.478	96.54
369.941	98.24
370.404	93.94
370.867	93.54
371.331	103.04
371.794	96.14
372.257	94.04
372.72	102.34
373.183	103.64
373.646	92.44
374.109	95.54
374.572	105.54
375.035	93.84
375.497	100.24
375.96	103.64
376.423	104.24
376.886	107.54
377.349	105.54
377.811	98.04
378.274	102.34
378.737	102.24
379.199	111.74
379.662	106.94
380.125	106.94
380.587	108.94
381.05	105.54
381.512	114.54
381.975	122.24
382.437	116.64
382.9	115.74
383.362	125.54
383.825	124.24
384.287	130.54
384.75	117.64
385.212	126.24
385.674	129.14
386.136	131.34
386.599	124.44
387.061	125.14
387.523	122.24
387.985	125.44
388.447	127.44
388.91	124.44
389.372	133.44
389.834	128.94
390.296	125.94
390.758	130.04
391.22	139.14
391.682	143.64
392.144	157.94
392.606	141.54
393.068	142.34
393.529	154.04
393.991	146.64
394.453	137.84
394.915	133.54
395.377	139.64
395.838	131.34
396.3	142.64
396.762	144.84
397.224	137.84
397.685	135.54
398.147	139.84
398.608	135.94
399.07	136.84
399.531	144.14
399.993	146.14
400.454	162.44
400.916	149.44
401.377	148.14
401.839	152.14
402.3	155.94
402.762	175.64
403.223	182.64
403.684	177.34
404.145	164.84
404.607	163.04
405.068	163.64
405.529	167.24
405.99	181.54
406.451	175.74
406.913	175.44
407.374	169.54
407.835	167.94
408.296	172.34
408.757	175.44
409.218	181.54
409.679	190.34
410.14	178.24
410.601	173.54
411.062	183.14
411.522	190.44
411.983	180.74
412.444	185.04
412.905	190.14
413.366	191.94
413.826	203.44
414.287	229.64
414.748	285.64
415.208	266.34
415.669	226.84
416.13	216.24
416.59	222.04
417.051	227.84
417.511	228.44
417.972	258.04
418.432	268.54
418.893	315.14
419.353	274.14
419.814	216.54
420.274	194.34
420.734	189.54
421.195	205.74
421.655	196.44
422.115	203.54
422.576	203.04
423.036	213.64
423.496	216.74
423.956	225.24
424.416	237.84
424.876	278.04
425.336	262.94
425.797	270.44
426.257	266.74
426.717	253.94
427.177	238.84
427.637	230.24
428.097	238.74
428.556	254.14
429.016	274.74
429.476	269.64
429.936	278.04
430.396	277.84
430.856	288.04
431.315	313.14
431.775	339.24
432.235	384.74
432.694	349.34
433.154	353.44
433.614	379.04
434.073	327.54
434.533	287.24
434.993	268.34
435.452	280.94
435.912	286.94
436.371	273.84
436.83	270.94
437.29	267.94
437.749	249.14
438.209	246.64
438.668	264.64
439.127	270.24
439.587	260.04
440.046	244.24
440.505	256.34
440.964	264.44
441.424	300.04
441.883	288.34
442.342	262.14
442.801	234.34
443.26	235.54
443.719	234.74
444.178	236.54
444.637	222.44
445.096	235.44
445.555	231.04
446.014	235.84
446.473	229.34
446.932	238.64
447.391	236.44
447.849	235.54
448.308	230.24
448.767	238.94
449.226	246.64
449.685	246.24
450.143	267.04
450.602	246.64
451.061	238.44
451.519	244.34
451.978	239.84
452.436	237.24
452.895	245.94
453.353	250.44
453.812	241.44
454.27	244.84
454.729	249.64
455.187	245.34
455.646	247.74
456.104	246.54
456.562	260.64
457.021	268.84
457.479	256.94
457.937	261.34
458.395	266.64
458.854	249.64
459.312	265.14
459.77	265.04
460.228	253.94
460.686	252.14
461.144	258.44
461.602	254.84
462.06	256.24
462.518	264.04
462.976	259.14
463.434	257.74
463.892	273.14
464.35	281.24
464.808	290.84
465.266	269.04
465.724	278.34
466.181	284.04
466.639	274.34
467.097	294.14
467.555	302.14
468.012	295.64
468.47	304.54
468.928	320.44
469.385	339.34
469.843	340.84
470.3	334.34
470.758	348.94
471.215	373.64
471.673	391.84
472.13	387.64
472.588	406.44
473.045	372.44
473.503	381.94
473.96	393.74
474.417	400.64
474.875	423.74
475.332	459.74
475.789	450.64
476.246	447.04
476.704	471.54
477.161	498.64
477.618	501.44
478.075	534.44
478.532	576.04
478.989	628.74
479.446	716.94
479.903	706.84
480.36	756.34
480.817	792.94
481.274	873.14
481.731	955.64
482.188	1037.14
482.645	1149.74
483.102	1235.14
483.558	1346.14
484.015	1393.94
484.472	1379.54
484.929	1336.84
485.385	1309.54
485.842	1289.84
486.299	1223.44
486.755	1158.44
487.212	1014.34
487.668	882.24
488.125	813.04
488.582	749.04
489.038	717.14
489.494	682.64
489.951	649.34
490.407	637.74
490.864	623.14
491.32	607.64
491.776	616.44
492.233	610.54
492.689	585.74
493.145	594.34
493.602	584.74
494.058	588.94
494.514	587.74
494.97	593.24
495.426	600.34
495.882	577.14
496.338	571.64
496.794	577.94
497.251	578.24
497.707	586.94
498.163	587.64
498.618	595.74
499.074	600.84
499.53	614.94
499.986	616.04
500.442	597.24
500.898	584.04
501.354	579.74
501.809	588.74
502.265	590.84
502.721	587.74
503.177	596.84
503.632	602.74
504.088	611.04
504.543	620.04
504.999	642.14
505.455	612.24
505.91	594.74
506.366	601.24
506.821	600.44
507.277	605.44
507.732	594.74
508.187	602.64
508.643	605.84
509.098	602.64
509.553	619.84
510.009	626.44
510.464	622.94
510.919	641.74
511.375	656.44
511.83	658.54
512.285	666.64
512.74	690.44
513.195	700.44
513.65	700.04
514.105	704.34
514.56	708.24
515.015	713.54
515.47	729.04
515.925	718.24
516.38	725.44
516.835	731.24
517.29	716.24
517.745	713.24
518.2	708.74
518.655	693.44
519.109	684.54
519.564	670.24
520.019	663.04
520.474	663.04
520.928	672.44
521.383	651.14
521.838	642.44
522.292	644.34
522.747	657.44
523.201	650.44
523.656	644.84
524.11	630.94
524.565	627.44
525.019	625.24
525.474	646.24
525.928	627.94
526.382	636.24
526.837	636.64
527.291	634.74
527.745	628.34
528.2	639.04
528.654	621.44
529.108	613.34
529.562	612.54
530.016	621.54
530.47	621.74
530.925	622.14
531.379	618.84
531.833	615.74
532.287	629.74
532.741	627.14
533.195	615.34
533.649	627.74
534.103	627.54
534.556	616.74
535.01	618.54
535.464	618.04
535.918	634.24
536.372	624.64
536.826	633.14
537.279	616.24
537.733	628.44
538.187	620.24
538.64	627.04
539.094	638.04
539.548	636.04
540.001	631.14
540.455	631.94
540.908	650.04
541.362	649.04
541.815	656.44
542.269	658.74
542.722	661.04
543.175	660.04
543.629	671.84
544.082	681.04
544.536	689.14
544.989	681.44
545.442	692.34
545.895	686.94
546.349	688.54
546.802	686.94
547.255	698.34
547.708	704.64
548.161	710.74
548.614	704.54
549.067	713.84
549.52	712.24
549.973	705.64
550.426	697.14
550.879	683.64
551.332	696.04
551.785	700.84
552.238	693.24
552.691	704.84
553.144	714.74
553.596	727.74
554.049	727.84
554.502	755.94
554.955	777.94
555.407	765.84
555.86	767.24
556.313	760.74
556.765	743.04
557.218	732.44
557.67	736.74
558.123	732.94
558.576	734.14
559.028	746.14
559.48	736.64
559.933	740.24
560.385	719.44
560.838	690.94
561.29	676.84
561.742	662.84
562.195	643.74
562.647	636.64
563.099	657.44
563.551	654.24
564.004	671.24
564.456	649.24
564.908	620.94
565.36	629.04
565.812	613.64
566.264	593.84
566.716	598.04
567.168	594.04
567.62	591.14
568.072	577.94
568.524	576.24
568.976	574.24
569.428	560.84
569.88	558.04
570.332	559.44
570.784	565.24
571.235	564.24
571.687	569.54
572.139	577.44
572.59	585.14
573.042	577.04
573.494	587.74
573.945	581.54
574.397	563.64
574.849	563.84
575.3	570.14
575.752	556.74
576.203	552.14
576.655	562.74
577.106	543.84
577.557	535.44
578.009	556.54
578.46	536.94
578.912	536.54
579.363	540.04
579.814	527.44
580.265	529.54
580.717	537.64
581.168	536.44
581.619	548.34
582.07	550.54
582.521	539.64
582.972	538.44
583.423	551.84
583.875	542.04
584.326	541.24
584.777	563.14
585.227	586.04
585.678	594.94
586.129	615.44
586.58	636.54
587.031	660.34
587.482	694.44
587.933	733.94
588.384	705.04
588.834	643.84
589.285	620.54
589.736	623.04
590.186	615.24
590.637	615.74
591.088	591.04
591.538	580.74
591.989	585.44
592.439	573.14
592.89	565.04
593.34	561.44
593.791	561.14
594.241	545.84
594.692	555.14
595.142	544.94
595.593	543.54
596.043	542.34
596.493	551.74
596.943	555.34
597.394	561.44
597.844	555.64
598.294	571.54
598.744	585.74
599.195	602.64
599.645	630.54
600.095	659.64
600.545	711.24
600.995	747.04
601.445	792.04
601.895	832.24
602.345	876.24
602.795	875.54
603.245	834.14
603.695	792.94
604.145	744.54
604.594	711.74
605.044	673.74
605.494	631.84
605.944	580.94
606.393	569.14
606.843	560.94
607.293	552.04
607.743	556.84
608.192	560.04
608.642	570.74
609.091	577.34
609.541	578.84
609.99	575.94
610.44	570.64
610.889	548.94
611.339	527.34
611.788	513.34
612.238	522.44
612.687	542.54
613.136	532.34
613.586	537.84
614.035	524.24
614.484	540.14
614.933	533.24
615.383	531.64
615.832	533.74
616.281	532.34
616.73	511.04
617.179	495.24
617.628	489.34
618.077	486.84
618.526	473.04
618.975	470.44
619.424	468.74
619.873	462.34
620.322	471.84
620.771	454.94
621.22	455.44
621.669	447.74
622.118	438.44
622.567	431.54
623.015	420.34
623.464	427.34
623.913	424.04
624.361	417.14
624.81	414.64
625.259	416.84
625.707	420.34
626.156	411.54
626.604	424.14
627.053	419.34
627.501	426.04
627.95	413.14
628.398	431.94
628.847	419.44
629.295	425.54
629.744	427.44
630.192	422.34
630.64	421.34
631.089	401.74
631.537	392.74
631.985	395.74
632.433	398.54
632.881	380.94
633.33	393.34
633.778	380.14
634.226	388.54
634.674	401.14
635.122	394.94
635.57	410.94
636.018	404.94
636.466	410.64
636.914	409.04
637.362	422.94
637.81	429.54
638.258	423.84
638.705	420.64
639.153	448.04
639.601	453.84
640.049	463.34
640.497	502.94
640.944	512.74
641.392	477.04
641.84	451.24
642.287	425.64
642.735	401.44
643.182	413.74
643.63	416.34
644.078	416.34
644.525	423.54
644.973	427.74
645.42	428.14
645.867	446.54
646.315	462.54
646.762	472.94
647.21	488.04
647.657	510.94
648.104	538.24
648.551	546.44
648.999	578.64
649.446	637.84
649.893	680.24
650.34	778.84
650.787	928.54
651.234	1129.34
651.682	1449.84
652.129	1939.24
652.576	2716.34
653.023	3986.64
653.47	5549.84
653.917	6975.14
654.363	8209.54
654.81	9335.94
655.257	8817.14
655.704	5878.64
656.151	3468.44
656.598	2265.84
657.044	1622.14
657.491	1264.64
657.938	1012.14
658.385	855.34
658.831	740.24
659.278	671.44
659.724	592.74
660.171	552.74
660.618	503.04
661.064	478.14
661.511	462.74
661.957	439.34
662.404	442.74
662.85	450.04
663.296	430.74
663.743	396.44
664.189	379.64
664.635	381.74
665.082	372.84
665.528	373.94
665.974	362.14
666.42	359.84
666.867	354.94
667.313	332.94
667.759	336.04
668.205	326.64
668.651	325.34
669.097	317.54
669.543	315.34
669.989	314.74
670.435	328.94
670.881	321.24
671.327	317.44
671.773	336.14
672.219	348.94
672.665	397.94
673.11	416.94
673.556	455.34
674.002	486.14
674.448	474.74
674.893	393.04
675.339	343.64
675.785	320.64
676.23	299.04
676.676	283.34
677.122	270.54
677.567	264.14
678.013	266.84
678.458	253.24
678.904	258.04
679.349	248.94
679.794	253.64
680.24	258.04
680.685	254.34
681.131	248.54
681.576	249.24
682.021	252.64
682.466	249.44
682.912	251.94
683.357	247.24
683.802	270.54
684.247	290.74
684.692	317.94
685.137	352.44
685.583	383.04
686.028	402.64
686.473	379.44
686.918	315.24
687.363	301.94
687.807	286.94
688.252	259.84
688.697	254.44
689.142	244.94
689.587	237.84
690.032	225.54
690.477	243.14
690.921	240.44
691.366	270.54
691.811	277.84
692.255	304.64
692.7	322.14
693.145	351.84
693.589	472.44
694.034	779.94
694.478	1096.44
694.923	1281.74
695.367	1693.54
695.812	898.24
696.256	361.24
696.701	266.54
697.145	241.14
697.59	230.24
698.034	218.44
698.478	235.14
698.922	223.94
699.367	220.14
699.811	234.94
700.255	243.14
700.699	270.34
701.143	290.14
701.588	339.84
702.032	371.64
702.476	372.54
702.92	352.74
703.364	350.44
703.808	437.54
704.252	713.44
704.696	1016.24
705.14	1225.64
705.584	1604.34
706.027	783.14
706.471	371.64
706.915	283.04
707.359	257.14
707.803	226.54
708.246	223.14
708.69	228.04
709.134	229.24
709.577	216.94
710.021	225.84
710.465	219.54
710.908	211.74
711.352	212.84
711.795	222.54
712.239	246.94
712.682	265.14
713.126	285.84
713.569	327.54
714.012	257.64
714.456	222.54
714.899	207.04
715.342	192.34
715.786	181.04
716.229	184.94
716.672	181.04
717.115	177.04
717.558	173.04
718.002	178.54
718.445	185.04
718.888	195.84
719.331	198.34
719.774	217.84
720.217	213.64
720.66	200.54
721.103	189.54
721.546	177.64
721.989	178.64
722.432	157.84
722.874	164.24
723.317	164.84
723.76	164.04
724.203	171.94
724.645	222.24
725.088	298.94
725.531	397.54
725.974	465.04
726.416	397.34
726.859	212.74
727.301	173.34
727.744	166.74
728.187	170.54
728.629	163.64
729.071	159.84
729.514	179.34
729.956	186.74
730.399	201.84
730.841	202.24
731.283	190.74
731.726	187.04
732.168	181.44
732.61	188.44
733.053	199.14
733.495	218.44
733.937	246.54
734.379	282.34
734.821	305.14
735.263	375.04
735.705	566.44
736.148	1063.64
736.59	1823.84
737.032	2281.74
737.474	1863.94
737.916	590.64
738.357	305.94
738.799	228.64
739.241	214.94
739.683	200.34
740.125	212.04
740.567	208.84
741.008	228.04
741.45	229.74
741.892	225.24
742.334	247.54
742.775	264.14
743.217	256.34
743.658	194.24
744.1	182.94
744.542	192.44
744.983	237.14
745.425	268.14
745.866	255.74
746.307	195.94
746.749	197.54
747.19	226.34
747.632	314.34
748.073	590.94
748.514	1272.54
748.956	2039.44
749.397	2577.74
749.838	2136.04
750.279	2224.94
750.72	1122.34
751.162	398.14
751.603	229.54
752.044	185.34
752.485	145.74
752.926	146.24
753.367	137.74
753.808	141.24
754.249	140.54
754.69	135.04
755.131	133.04
755.572	130.44
756.013	126.84
756.453	125.14
756.894	131.14
757.335	129.94
757.776	137.54
758.216	136.34
758.657	134.04
759.098	135.74
759.538	157.04
759.979	183.34
760.42	250.54
760.86	476.94
761.301	1241.94
761.741	3121.94
762.182	4942.44
762.622	3526.74
763.063	987.24
763.503	391.74
763.943	240.34
764.384	201.84
764.824	188.84
765.264	191.24
765.705	152.84
766.145	129.74
766.585	118.74
767.025	124.54
767.465	111.44
767.906	130.74
768.346	142.14
768.786	160.24
769.226	150.54
769.666	206.24
770.106	412.84
770.546	1054.14
770.986	1940.04
771.426	1803.14
771.866	587.74
772.306	224.84
772.745	148.24
773.185	114.44
773.625	113.74
774.065	100.24
774.505	114.74
774.944	146.24
775.384	260.34
775.824	463.44
776.263	469.64
776.703	220.64
777.142	116.44
777.582	92.24
778.021	86.64
778.461	89.84
778.9	82.44
779.34	92.04
779.779	74.24
780.219	75.84
780.658	70.14
781.097	71.04
781.537	73.14
781.976	72.74
782.415	71.64
782.855	76.34
783.294	68.64
783.733	70.04
784.172	64.94
784.611	69.44
785.05	75.54
785.489	80.64
785.928	74.34
786.367	82.84
786.806	76.54
787.245	89.14
787.684	96.84
788.123	97.14
788.562	97.24
789.001	90.24
789.44	82.14
789.879	80.84
790.317	85.84
790.756	89.44
791.195	88.64
791.634	101.24
792.072	139.54
792.511	237.44
792.95	682.54
793.388	1541.94
793.827	1453.94
794.265	489.04
794.704	204.44
795.142	135.54
795.581	116.34
796.019	102.84
796.458	89.34
796.896	80.64
797.334	90.44
797.773	108.74
798.211	152.04
798.649	289.74
799.087	704.94
799.526	1148.64
799.964	1453.44
800.402	1533.14
800.84	558.24
801.278	215.94
801.716	131.54
802.154	110.04
802.592	103.54
803.03	100.94
803.468	91.84
803.906	97.24
804.344	112.34
804.782	97.34
805.22	92.54
805.658	87.64
806.096	108.84
806.533	113.44
806.971	124.14
807.409	155.34
807.847	222.74
808.284	450.84
808.722	1311.74
809.16	2441.24
809.597	2265.04
810.035	4029.64
810.472	4607.04
810.91	1641.14
811.347	601.44
811.785	301.24
812.222	190.24
812.66	144.24
813.097	121.14
813.535	106.54
813.972	95.74
814.409	74.84
814.846	73.64
815.284	81.04
815.721	70.74
816.158	73.94
816.595	79.74
817.032	109.54
817.47	142.44
817.907	109.14
818.344	80.94
818.781	71.74
819.218	68.54
819.655	93.84
820.092	149.74
820.529	168.54
820.966	129.24
821.403	90.84
821.839	69.14
822.276	66.84
822.713	90.24
823.15	106.24
823.587	84.84
824.023	101.24
824.46	193.24
824.897	621.24
825.333	1022.64
825.77	434.54
826.206	164.94
826.643	101.24
827.08	73.94
827.516	58.84
827.953	50.24
828.389	60.54
828.825	45.14
829.262	46.74
829.698	45.74
830.135	51.04
830.571	46.64
831.007	43.04
831.443	50.54
831.88	41.84
832.316	46.04
832.752	46.84
833.188	46.44
833.624	42.04
834.06	46.84
834.497	50.84
834.933	47.34
835.369	57.74
835.805	41.94
836.241	52.34
836.677	53.54
837.112	64.74
837.548	62.44
837.984	91.94
838.42	134.54
838.856	338.04
839.292	1095.94
839.727	1771.94
840.163	808.84
840.599	653.74
841.034	1501.14
841.47	1669.04
841.906	590.94
842.341	243.04
842.777	145.14
843.212	154.04
843.648	146.24
844.083	86.84
844.519	60.24
844.954	47.04
845.39	38.94
845.825	47.94
846.261	40.54
846.696	39.84
847.131	35.34
847.566	39.64
848.002	34.54
848.437	38.54
848.872	41.04
849.307	42.94
849.742	53.84
850.177	116.94
850.613	386.94
851.048	651.14
851.483	275.74
851.918	109.14
852.353	54.44
852.788	34.74
853.223	30.64
853.657	36.14
854.092	36.24
854.527	27.54
854.962	31.84
855.397	27.54
855.832	34.14
856.266	29.44
856.701	26.94
857.136	28.94
857.57	30.14
858.005	34.04
858.44	42.94
858.874	26.84
859.309	36.94
859.743	19.74
860.178	33.44
860.612	25.54
861.047	37.34
861.481	50.34
861.915	55.84
862.35	37.34
862.784	26.14
863.218	26.14
863.653	26.04
864.087	35.54
864.521	34.04
864.955	40.94
865.39	110.74
865.824	125.94
866.258	85.24
866.692	135.14
867.126	148.44
867.56	88.94
867.994	39.04
868.428	27.34
868.862	33.84
869.296	48.24
869.73	44.84
870.164	46.64
870.598	39.44
871.031	27.24
871.465	22.44
871.899	20.64
872.333	11.54
872.766	17.54
873.2	16.24
873.634	23.44
874.067	16.54
874.501	16.44
874.935	22.64
875.368	17.94
875.802	17.74
876.235	20.64
876.669	16.84
877.102	17.44
877.535	17.24
877.969	17.14
878.402	20.44
878.836	10.34
879.269	16.94
879.702	15.74
880.135	16.14
880.569	17.24
881.002	16.94
881.435	15.34
881.868	6.44
882.301	13.44
882.734	11.84
883.167	18.04
883.601	16.64
884.034	13.14
884.467	10.44
884.899	16.14
885.332	6.14
885.765	8.04
886.198	9.24
886.631	12.54
887.064	15.44
887.497	14.54
887.929	19.84
888.362	7.94
888.795	2.04
889.228	14.74
889.66	13.14
890.093	3.34
890.526	6.44
890.958	15.34
891.391	11.74
891.823	17.94
892.256	11.34
892.688	10.04
893.121	6.64
893.553	6.84
893.985	18.14
894.418	17.64
894.85	5.34
895.282	9.84
895.715	7.74
896.147	8.94
896.579	11.84
897.011	6.34
897.444	19.04
897.876	0.94
898.308	11.24
898.74	8.24
899.172	10.44
899.604	17.44
900.036	12.24
900.468	11.14
900.9	7.64
901.332	11.84
901.764	7.64
902.196	16.74
902.628	12.84
903.06	9.04
903.491	26.24
903.923	17.24
904.355	12.84
904.787	18.34
905.218	7.94
905.65	15.34
906.082	12.24
906.513	7.44
906.945	12.44
907.376	5.64
907.808	5.84
908.239	15.14
908.671	11.74
909.102	11.14
909.534	14.54
909.965	32.54
910.397	61.94
910.828	229.34
911.259	362.04
911.691	164.64
912.122	77.34
912.553	37.94
912.984	24.54
913.415	12.74
913.847	26.94
914.278	11.54
914.709	8.64
915.14	9.04
915.571	6.34
916.002	3.24
916.433	16.44
916.864	12.54
917.295	4.24
917.726	10.14
918.157	9.04
918.587	17.94
919.018	15.64
919.449	17.34
919.88	15.44
920.311	17.64
920.741	30.84
921.172	117.74
921.603	112.34
922.033	50.24
922.464	35.04
922.895	14.44
923.325	15.44
923.756	6.04
924.186	8.74
924.617	14.04
925.047	8.84
925.478	16.54
925.908	9.64
926.338	9.64
926.769	9.94
927.199	10.34
927.629	2.44
928.06	13.14
928.49	7.94
928.92	9.64
929.35	7.24
929.78	8.04
930.21	7.34
930.641	7.24
931.071	8.44
931.501	0.94
931.931	3.54
932.361	5.84
932.791	-1.06
933.221	1.34
933.651	2.94
934.08	15.74
934.51	20.34
934.94	6.84
935.37	9.94
935.8	8.14
936.229	3.84
936.659	9.84
937.089	0.34
937.519	13.14
937.948	22.84
938.378	10.04
938.807	1.54
939.237	-2.26
939.666	9.94
940.096	-1.36
940.525	1.94
940.955	7.04
941.384	0.24
941.814	-7.96
942.243	-10.26
942.672	1.44
943.102	-2.16
943.531	-2.06
943.96	3.94
944.39	0.34
944.819	4.74
945.248	3.94
945.677	1.14
946.106	0.74
946.535	-2.26
946.964	-2.76
947.393	0.24
947.822	2.14
948.251	-9.06
948.68	0.14
949.109	1.34
949.538	6.24
949.967	0.64
950.396	-2.26
950.825	-8.06
951.254	-1.36
951.682	-10.66
952.111	4.54
952.54	8.84
952.969	-4.06
953.397	-1.06
953.826	2.54
954.254	-1.16
954.683	-1.56
955.112	-7.76
955.54	-2.56
955.969	0.94
956.397	-4.86
956.826	-3.56
957.254	0.74
957.682	-2.06
958.111	8.34
958.539	-1.26
958.967	-2.46
959.396	-5.46
959.824	-1.76
960.252	1.54
960.68	-9.76
961.109	1.64
961.537	-11.86
961.965	-0.36
962.393	-2.96
962.821	0.54
963.249	-0.16
963.677	4.74
964.105	4.14
964.533	26.54
964.961	29.64
965.389	12.74
965.817	3.84
966.245	1.34
966.672	0.54
967.1	-5.46
967.528	2.04
967.956	-8.36
968.383	-2.46
968.811	-4.06
969.239	-5.16
969.666	-0.16
970.094	-5.26
970.522	-1.76
970.949	-4.06
971.377	-13.56
971.804	-9.16
972.232	-7.36
972.659	-4.26
973.087	-0.66
973.514	-2.06
973.941	-6.66
974.369	2.24
974.796	-4.06
975.223	-2.36
975.651	0.54
976.078	1.94
976.505	-3.86
976.932	-2.56
977.359	7.64
977.786	8.14
978.214	0.54
978.641	-9.96
979.068	-0.46
979.495	-9.06
979.922	-5.26
980.349	2.64
980.776	0.24
981.202	-2.16
981.629	0.44
982.056	2.84
982.483	1.04
982.91	-1.96
983.337	-5.06
983.763	7.94
984.19	-6.46
984.617	-6.16
985.043	-1.76
985.47	-5.56
985.897	-3.26
986.323	-2.26
986.75	-0.56
987.176	-7.26
987.603	1.64
988.029	2.94
988.456	-4.16
988.882	1.34
989.308	-11.26
989.735	-6.26
990.161	-2.86
990.587	-7.96
991.014	0.64
991.44	8.64
991.866	0.94
992.292	-3.26
992.719	-0.06
993.145	-1.06
993.571	-5.76
993.997	-3.76
994.423	-2.26
994.849	-8.16
995.275	1.44
995.701	-0.66
996.127	-9.36
996.553	1.04
996.979	-8.06
997.405	0.24
997.83	-11.56
998.256	-8.76
998.682	-6.56
999.108	-8.36
999.534	-1.76
999.959	-4.46
1000.385	-7.16
1000.811	1.24
1001.236	-4.76
1001.662	-7.66
1002.087	-5.86
1002.513	-4.96
1002.938	3.94
1003.364	-0.76
1003.789	1.14
1004.215	7.64
1004.64	-5.96
1005.066	-2.16
1005.491	-0.36
1005.916	-5.16
1006.342	-10.36
1006.767	-3.26
1007.192	6.84
1007.617	-1.56
1008.042	-6.06
1008.468	-5.56
1008.893	-0.56
1009.318	-7.36
1009.743	-5.36
1010.168	-1.26
1010.593	2.54
1011.018	-5.06
1011.443	3.64
1011.868	5.04
1012.293	-2.76
1012.718	-5.86
1013.143	-2.36
1013.567	0.34
1013.992	-5.26
1014.417	-8.76
1014.842	1.14
1015.267	-3.26
1015.691	-4.66
1016.116	3.24
1016.541	-3.46
1016.965	-5.66
1017.39	3.84
1017.814	-6.96
1018.239	-0.56
1018.663	-0.56
1019.088	-11.56
1019.512	-7.36
1019.937	-0.96
1020.361	-8.86
1020.785	-7.86
1021.21	-1.76
1021.634	-1.96
1022.058	0.24
1022.483	0.44
1022.907	-4.06
1023.331	-4.56
1023.755	0.04
1024.179	1.34
1024.604	-5.56
1025.028	-5.26
1025.452	-5.06
1025.876	-0.86
1026.3	2.24
1026.724	-14.16
1027.148	-3.56
1027.572	-5.66
1027.996	-2.66
1028.42	-1.86
1028.843	-4.96
1029.267	-10.66
1029.691	-3.46
1030.115	-12.06
1030.539	-6.86
1030.962	-8.26
1031.386	-10.96
1031.81	-0.06
1032.233	-0.86
1032.657	0.34
1033.08	2.74
1033.504	-0.16
1033.927	-6.76
1034.351	0.54
1034.774	-3.66
1035.198	-4.36
1035.621	-9.76
1036.045	-4.96
1036.468	2.34
1036.891	-13.86
1037.315	-8.86
1037.738	-12.76
1038.161	4.44
1038.584	-2.86
1039.008	-5.96
1039.431	-0.86
1039.854	-2.76
1040.277	-8.36
1040.7	-8.96
1041.123	2.84
1041.546	-6.36
1041.969	-6.76
1042.392	-7.46
1042.815	-8.16
1043.238	-3.96
1043.661	-1.86
1044.084	-2.56
1044.507	-5.06
1044.93	-7.46
1045.352	-10.96
1045.775	-4.46
1046.198	-2.86
1046.621	-3.96
1047.043	-3.96
1047.466	5.74
1047.889	0.34
1048.311	-6.96
1048.734	0.64
1049.156	-11.86
1049.579	-0.26
1050.001	-5.76
1050.424	-1.46
1050.846	-8.26
1051.269	-6.06
1051.691	-1.26
1052.113	-7.76
1052.536	1.04
1052.958	-7.56
1053.38	-0.96
1053.802	-13.26
1054.225	4.34
1054.647	-7.16
1055.069	-8.36
1055.491	-1.46
1055.913	-7.76
1056.335	1.24
1056.757	-7.36
1057.179	-10.46
1057.601	-6.16
1058.023	-2.36
1058.445	-8.26
1058.867	-1.16
1059.289	1.94
1059.711	-7.46
1060.133	-2.56
1060.555	-7.46
1060.976	-6.36
1061.398	-6.86
1061.82	-11.16
1062.241	-2.46
1062.663	-11.06
1063.085	-5.86
1063.506	-4.56
1063.928	-4.76
1064.35	2.04
1064.771	-16.56
1065.193	-5.46
1065.614	-5.66
1066.035	-1.66
1066.457	-5.86
1066.878	-0.86
1067.3	-9.16
1067.721	-4.96
1068.142	-4.36
1068.564	-0.06
1068.985	-4.66
1069.406	-4.46
1069.827	-1.26
1070.248	-2.26
1070.67	-10.66
1071.091	-8.36
1071.512	-2.46
1071.933	0.64
1072.354	-7.96
1072.775	-4.36
1073.196	-4.56
1073.617	-1.56
1074.038	-10.06
1074.459	-0.96
1074.88	-8.66
1075.3	-4.66
1075.721	-8.96
1076.142	0.14
1076.563	0.74
1076.983	-6.36
1077.404	-9.06
1077.825	-8.86
1078.246	-7.76
1078.666	-10.86
1079.087	-5.76
1079.507	-9.06
1079.928	2.84
1080.348	-5.06
1080.769	0.14
1081.189	0.04
1081.61	3.04
1082.03	-10.96
1082.451	-10.66
1082.871	-10.66
1083.291	-9.96
1083.711	-9.76
1084.132	-6.86
1084.552	-6.76
1084.972	-3.26
1085.392	-9.56
1085.813	-6.46
1086.233	-8.76
1086.653	-6.96
1087.073	-3.16
1087.493	-9.56
1087.913	-7.76
1088.333	-10.56
1088.753	3.14
1089.173	2.44
1089.593	-6.56
1090.013	1.14
1090.433	-0.66
1090.852	-7.66
1091.272	-2.96
1091.692	2.04
1092.112	-2.46
1092.531	-3.06
1092.951	-10.26
1093.371	-2.86
1093.79	0.44
1094.21	-4.66
1094.63	-12.96
1095.049	-9.46
1095.469	-9.66
1095.888	-0.16
1096.308	3.74
1096.727	-0.06
1097.146	-5.46
1097.566	-2.16
1097.985	-5.76
1098.405	-3.66
1098.824	-7.86
1099.243	-7.96
1099.662	-7.56
1100.082	-5.66
1100.501	-6.66
1100.92	-6.36
1101.339	-2.96
1101.758	-5.36
