Data from 20171114-ORNL-Ar_H_NY_Subt18_08-04-32-636.txt Node
Date: Tue Nov 14 08:04:32 EST 2017
User: Ender
Spectrometer: HR+D1039
Trigger mode: 0
Integration Time (sec): 2.730000E-2
Scans to average: 10
Electric dark correction enabled: true
Nonlinearity correction enabled: false
Boxcar width: 0
XAxis mode: Wavelengths
Number of Pixels in Spectrum: 2048
>>>>>Begin Spectral Data<<<<<
187.836	0.9
188.309	0.9
188.782	0.9
189.255	3
189.728	-0.4
190.201	2.7
190.674	2.1
191.147	1.1
191.619	-9.4
192.092	-6.7
192.565	1.9
193.038	0.3
193.511	-1.4
193.984	2.6
194.456	0
194.929	0.6
195.402	1
195.874	1.7
196.347	-3.9
196.82	-7.9
197.292	2.2
197.765	-0.1
198.237	-11.2
198.71	-2.2
199.182	-3.4
199.655	-2.6
200.127	-0.5
200.6	-1.5
201.072	-8.2
201.544	-8.1
202.017	-2.9
202.489	5.7
202.961	4.6
203.433	0.6
203.906	-8.8
204.378	-7
204.85	-1.4
205.322	-13
205.794	-3.7
206.266	-5.7
206.739	-11.7
207.211	3.5
207.683	-10
208.155	-6.3
208.627	-12.7
209.099	-13.2
209.57	-11.7
210.042	-8.8
210.514	-7.2
210.986	-3.3
211.458	-12.2
211.93	-0.3
212.402	0.8
212.873	-4.9
213.345	-13.5
213.817	-10.2
214.288	-7.6
214.76	-10.9
215.232	-3.9
215.703	-8.8
216.175	-4.8
216.646	-4.2
217.118	-6.8
217.589	-8
218.061	-1.7
218.532	-8.7
219.004	1.2
219.475	-2.3
219.946	-0
220.418	-6.9
220.889	-1.2
221.36	0.8
221.832	-11.1
222.303	-6.7
222.774	-5.4
223.245	-9.5
223.717	-9.4
224.188	-6.3
224.659	-13
225.13	-7.7
225.601	-2.1
226.072	-2.6
226.543	3.4
227.014	-2.2
227.485	-7.3
227.956	-6.6
228.427	-6.9
228.898	-0.1
229.369	-1.9
229.839	-0.9
230.31	-8.3
230.781	0.5
231.252	-4.5
231.722	-1.4
232.193	-4.2
232.664	0.1
233.135	3
233.605	-1.8
234.076	-5.5
234.546	-2
235.017	3.4
235.487	-3.1
235.958	2.4
236.428	-6.1
236.899	5.6
237.369	5.2
237.84	-7
238.31	7.2
238.78	3.1
239.251	7.4
239.721	-2.3
240.191	-0.5
240.662	-3.4
241.132	-1.4
241.602	-0.4
242.072	3.5
242.542	8.3
243.013	0.4
243.483	2.3
243.953	4.3
244.423	1
244.893	-0.3
245.363	6.2
245.833	2.7
246.303	3.4
246.773	8.6
247.243	2
247.712	4.7
248.182	6.9
248.652	10.1
249.122	2.3
249.592	14.3
250.061	24
250.531	32.2
251.001	17.9
251.471	20.3
251.94	22.7
252.41	6.7
252.879	-0.6
253.349	11.6
253.818	11.1
254.288	2.6
254.757	5.6
255.227	3.3
255.696	1.4
256.166	7.2
256.635	6.1
257.105	9.1
257.574	5
258.043	13.2
258.513	7.1
258.982	14.7
259.451	11.8
259.92	8.1
260.389	11.7
260.859	12.5
261.328	19.7
261.797	16.8
262.266	11.8
262.735	10.3
263.204	12.2
263.673	2
264.142	4.3
264.611	-7.8
265.08	1
265.549	-5
266.018	12.6
266.487	-0.9
266.955	2.2
267.424	4.8
267.893	7.9
268.362	7
268.83	6.3
269.299	9.1
269.768	12
270.236	6.1
270.705	0.2
271.174	6.4
271.642	7.9
272.111	13.8
272.579	16.9
273.048	27.2
273.516	26.6
273.985	30.7
274.453	24.5
274.922	22.4
275.39	14.1
275.858	2.3
276.327	12.9
276.795	18.5
277.263	14
277.731	28.4
278.2	55.1
278.668	60
279.136	51.5
279.604	21.2
280.072	13.9
280.54	13.3
281.008	15.2
281.477	20.7
281.945	5.8
282.413	15.1
282.881	16.4
283.348	15
283.816	18.5
284.284	24.1
284.752	21.8
285.22	16.5
285.688	16.4
286.156	19.9
286.623	44.9
287.091	53.9
287.559	30
288.026	25.2
288.494	20.2
288.962	3.8
289.429	8.6
289.897	17.2
290.364	19.1
290.832	14.9
291.3	19.9
291.767	19.4
292.234	22.7
292.702	17.7
293.169	11.8
293.637	20.7
294.104	18.5
294.571	15.4
295.039	10.8
295.506	13.3
295.973	17.7
296.44	14.8
296.908	20.6
297.375	19.3
297.842	20
298.309	14.8
298.776	14.8
299.243	26.7
299.71	11.4
300.177	20
300.644	20.8
301.111	21.6
301.578	27.7
302.045	23.7
302.512	22.3
302.979	26.3
303.446	23.8
303.913	17.4
304.379	17.4
304.846	33.6
305.313	27.5
305.78	22.8
306.246	31.5
306.713	32
307.18	27.7
307.646	29.9
308.113	27.6
308.579	23
309.046	29.5
309.512	29
309.979	24.5
310.445	28.1
310.912	30.5
311.378	30.6
311.845	33.5
312.311	34.6
312.777	33.6
313.244	35.7
313.71	37.7
314.176	30.4
314.642	30
315.109	36.2
315.575	41.2
316.041	43.5
316.507	31
316.973	41.7
317.439	37.1
317.905	37.2
318.371	30.9
318.837	33
319.303	30.2
319.769	31.3
320.235	32.7
320.701	37.3
321.167	39.2
321.633	29
322.099	43.9
322.564	43.6
323.03	38.6
323.496	42.9
323.962	41.9
324.427	34.4
324.893	42.6
325.359	32.3
325.824	37
326.29	42
326.755	36.3
327.221	42.9
327.686	37.8
328.152	46.9
328.617	42.4
329.083	48.7
329.548	50.5
330.014	49.2
330.479	41.6
330.944	43.3
331.41	40.6
331.875	47.7
332.34	51.5
332.805	44.4
333.271	50.9
333.736	44.1
334.201	52
334.666	54.9
335.131	45.5
335.596	49.8
336.061	50.8
336.526	40.6
336.991	49.2
337.456	55.7
337.921	50.1
338.386	44.8
338.851	41.8
339.316	43.9
339.781	46.1
340.246	56
340.711	54.7
341.175	49.1
341.64	43.1
342.105	50.9
342.569	51.3
343.034	56
343.499	61.3
343.963	55.7
344.428	66.3
344.893	64.3
345.357	60.4
345.822	60.3
346.286	69.2
346.751	71.6
347.215	61.3
347.679	75
348.144	93.5
348.608	77
349.073	68.4
349.537	69
350.001	77.7
350.465	86.2
350.93	82.4
351.394	81.9
351.858	76.1
352.322	87.7
352.786	78
353.25	95.9
353.715	107
354.179	98.8
354.643	109
355.107	120.9
355.571	109.5
356.035	101
356.498	108
356.962	119.6
357.426	128.8
357.89	119
358.354	91.4
358.818	88
359.281	75.2
359.745	76.9
360.209	77.7
360.673	75.2
361.136	79.6
361.6	83.1
362.064	85.8
362.527	85
362.991	86.6
363.454	76.9
363.918	73.2
364.381	80
364.845	86.1
365.308	75.5
365.772	85
366.235	79
366.698	80.3
367.162	82.9
367.625	84.1
368.088	89.7
368.552	84.3
369.015	88.1
369.478	89.3
369.941	94.7
370.404	90.7
370.867	100.2
371.331	100.8
371.794	112.3
372.257	108.5
372.72	115.5
373.183	106.9
373.646	108
374.109	99.5
374.572	100.9
375.035	108.3
375.497	100.9
375.96	111.2
376.423	98.4
376.886	111.9
377.349	101.2
377.811	97.3
378.274	99.3
378.737	107
379.199	107.6
379.662	105.2
380.125	116.3
380.587	113.3
381.05	118.4
381.512	126.4
381.975	131.1
382.437	122.5
382.9	116.1
383.362	125.7
383.825	129.1
384.287	143.6
384.75	132.5
385.212	138.1
385.674	127.3
386.136	133.3
386.599	124.8
387.061	127.6
387.523	128.3
387.985	128.2
388.447	139.8
388.91	135.5
389.372	148.3
389.834	144.3
390.296	136.8
390.758	152.7
391.22	158.8
391.682	194.4
392.144	277
392.606	221.1
393.068	158.6
393.529	165.2
393.991	147.7
394.453	145.6
394.915	152.8
395.377	190.9
395.838	204.2
396.3	146.2
396.762	137.1
397.224	124.7
397.685	125.4
398.147	129.9
398.608	124.2
399.07	122
399.531	131.8
399.993	139.4
400.454	147.7
400.916	140.3
401.377	141.4
401.839	142.6
402.3	144
402.762	156.5
403.223	165.6
403.684	160.5
404.145	147.1
404.607	157.4
405.068	159.6
405.529	162.3
405.99	183.3
406.451	162.2
406.913	158.5
407.374	151.1
407.835	153.7
408.296	156.9
408.757	161.8
409.218	172.2
409.679	169.6
410.14	167.1
410.601	173.8
411.062	175
411.522	182.7
411.983	177.5
412.444	166.8
412.905	176.7
413.366	172.3
413.826	179
414.287	201.6
414.748	244.9
415.208	242.1
415.669	197.6
416.13	195
416.59	186.1
417.051	196.4
417.511	216.2
417.972	222.3
418.432	244.5
418.893	272.2
419.353	239.4
419.814	188.4
420.274	173.4
420.734	171.9
421.195	184
421.655	182.8
422.115	181.9
422.576	180.1
423.036	187.6
423.496	203.7
423.956	202.9
424.416	216.2
424.876	251.1
425.336	246.6
425.797	252
426.257	245.3
426.717	225.1
427.177	216.5
427.637	209.5
428.097	224.5
428.556	238.1
429.016	254.8
429.476	248.7
429.936	259.1
430.396	252.5
430.856	280.2
431.315	292.7
431.775	332.1
432.235	365.8
432.694	333.1
433.154	334.3
433.614	357.5
434.073	322.2
434.533	270.8
434.993	253.1
435.452	264.3
435.912	278
436.371	264.7
436.83	266.7
437.29	258.7
437.749	239.4
438.209	230.6
438.668	254.5
439.127	262.6
439.587	246.5
440.046	228
440.505	246.9
440.964	266
441.424	300.7
441.883	284.2
442.342	241.5
442.801	208
443.26	205.6
443.719	207
444.178	204.7
444.637	200.8
445.096	211
445.555	205.2
446.014	210.3
446.473	214
446.932	221.1
447.391	211.6
447.849	215.8
448.308	211.1
448.767	208.1
449.226	227.3
449.685	228.1
450.143	233.4
450.602	230
451.061	221.4
451.519	221.2
451.978	219.8
452.436	226.5
452.895	229.8
453.353	238.6
453.812	225.1
454.27	225.3
454.729	224.2
455.187	233.4
455.646	230.2
456.104	230.5
456.562	241.7
457.021	251.3
457.479	244
457.937	257.4
458.395	242.8
458.854	233.9
459.312	241
459.77	254.9
460.228	237.1
460.686	231.9
461.144	229.2
461.602	228.8
462.06	228.8
462.518	238.5
462.976	241.4
463.434	243.4
463.892	245.1
464.35	259.9
464.808	271.8
465.266	257
465.724	264.8
466.181	263.4
466.639	261.9
467.097	274.7
467.555	280.4
468.012	290.3
468.47	292.7
468.928	308.8
469.385	318.5
469.843	331.4
470.3	330.5
470.758	342.7
471.215	364.4
471.673	381.2
472.13	374.4
472.588	388.2
473.045	344.8
473.503	351
473.96	368.4
474.417	379.7
474.875	411
475.332	440.9
475.789	426.1
476.246	437.9
476.704	454.9
477.161	470.2
477.618	494.7
478.075	524.7
478.532	580.2
478.989	649.7
479.446	757.7
479.903	727.6
480.36	762.6
480.817	815.3
481.274	913.9
481.731	1014.4
482.188	1101.7
482.645	1238.8
483.102	1336.2
483.558	1468.5
484.015	1503.2
484.472	1495.5
484.929	1453.4
485.385	1391.6
485.842	1369.7
486.299	1300.7
486.755	1222.7
487.212	1033.5
487.668	880
488.125	816.7
488.582	740.5
489.038	705.1
489.494	679.9
489.951	656.9
490.407	640.2
490.864	623
491.32	610.1
491.776	599.9
492.233	606.2
492.689	577.2
493.145	566.3
493.602	571.9
494.058	576
494.514	579.2
494.97	596.5
495.426	609.7
495.882	587.1
496.338	586.6
496.794	598.6
497.251	583.7
497.707	601.9
498.163	599.6
498.618	606.5
499.074	607.2
499.53	639.2
499.986	634.1
500.442	606.9
500.898	596.2
501.354	585.5
501.809	606.1
502.265	611
502.721	614.2
503.177	631.4
503.632	626.8
504.088	627.6
504.543	670.1
504.999	666.1
505.455	616.5
505.91	587.4
506.366	592.8
506.821	590
507.277	586.2
507.732	585.8
508.187	585.6
508.643	600.3
509.098	593.3
509.553	609.9
510.009	627.1
510.464	623.9
510.919	653.5
511.375	647.8
511.83	670
512.285	681.5
512.74	717.2
513.195	733.1
513.65	727.6
514.105	726.3
514.56	737.7
515.015	739.8
515.47	771.5
515.925	748.6
516.38	748.5
516.835	738.6
517.29	737.2
517.745	732.9
518.2	716.5
518.655	702.4
519.109	701.8
519.564	694
520.019	690.5
520.474	675.8
520.928	686.3
521.383	681.3
521.838	675.2
522.292	665.5
522.747	675.5
523.201	662.3
523.656	655.3
524.11	646.8
524.565	650.4
525.019	643.5
525.474	647.8
525.928	653
526.382	652.6
526.837	651.4
527.291	657.1
527.745	648.8
528.2	657.5
528.654	637
529.108	648.2
529.562	643.1
530.016	647.4
530.47	650.7
530.925	650.5
531.379	651.7
531.833	670.3
532.287	657.8
532.741	656.8
533.195	648.6
533.649	671.5
534.103	678.7
534.556	669.3
535.01	669.3
535.464	654.2
535.918	671.4
536.372	663.4
536.826	668.9
537.279	658.2
537.733	666.4
538.187	671.1
538.64	657.1
539.094	678.8
539.548	678.2
540.001	678.1
540.455	684.7
540.908	683.3
541.362	681.4
541.815	690.4
542.269	701.6
542.722	701.7
543.175	709.9
543.629	713.3
544.082	730
544.536	726
544.989	724.7
545.442	736.9
545.895	742.3
546.349	738.2
546.802	728
547.255	729.1
547.708	747.3
548.161	759.8
548.614	763.2
549.067	762.3
549.52	756.2
549.973	750.6
550.426	754.1
550.879	729.9
551.332	733.9
551.785	735.7
552.238	752.2
552.691	749.4
553.144	769.4
553.596	786.9
554.049	787.1
554.502	818
554.955	847.2
555.407	852.5
555.86	821.2
556.313	831.9
556.765	807.3
557.218	811.5
557.67	814.8
558.123	805.7
558.576	806.7
559.028	796.8
559.48	819.2
559.933	804.5
560.385	770.1
560.838	743.2
561.29	716.7
561.742	710.3
562.195	699.1
562.647	695.6
563.099	707.4
563.551	703.4
564.004	718.3
564.456	711.6
564.908	700.6
565.36	684.2
565.812	671.7
566.264	665.3
566.716	662.7
567.168	651.7
567.62	666.9
568.072	640.3
568.524	634.1
568.976	618.6
569.428	618.7
569.88	613.4
570.332	618.3
570.784	614.3
571.235	607.3
571.687	630.1
572.139	633.8
572.59	653.1
573.042	645.5
573.494	642.9
573.945	638.5
574.397	623.9
574.849	627.6
575.3	634.6
575.752	625.1
576.203	609
576.655	625
577.106	597
577.557	600.7
578.009	599.8
578.46	607.8
578.912	598.8
579.363	590.8
579.814	597.4
580.265	601.1
580.717	609.9
581.168	597.9
581.619	615.9
582.07	619.6
582.521	610.1
582.972	605.1
583.423	609
583.875	615.5
584.326	629.4
584.777	665.7
585.227	742.1
585.678	828.8
586.129	910
586.58	974.3
587.031	1064.6
587.482	1216.1
587.933	1397.7
588.384	1195.4
588.834	879.4
589.285	732.2
589.736	703.8
590.186	695.8
590.637	692.2
591.088	657
591.538	658.9
591.989	652
592.439	652.8
592.89	645.3
593.34	626.4
593.791	635.4
594.241	622.9
594.692	632.2
595.142	623.1
595.593	622.8
596.043	639
596.493	639.4
596.943	631.3
597.394	631
597.844	636.3
598.294	646.1
598.744	675.1
599.195	694.9
599.645	719.5
600.095	756.7
600.545	815.6
600.995	862.5
601.445	898.3
601.895	964.9
602.345	1014.2
602.795	997.2
603.245	962.7
603.695	904.8
604.145	856
604.594	810.5
605.044	767
605.494	714
605.944	672.6
606.393	659.8
606.843	635.1
607.293	654.7
607.743	647.6
608.192	663
608.642	666.8
609.091	672.8
609.541	675.3
609.99	673.6
610.44	672.7
610.889	654.9
611.339	622.6
611.788	611.7
612.238	626
612.687	639.5
613.136	640.4
613.586	648
614.035	646.8
614.484	665.5
614.933	671.6
615.383	664.8
615.832	651.7
616.281	635.9
616.73	606.3
617.179	587.6
617.628	566.3
618.077	558.1
618.526	544.4
618.975	542.8
619.424	541.6
619.873	536.1
620.322	546.4
620.771	531.7
621.22	529.9
621.669	516.6
622.118	510.9
622.567	510.7
623.015	501.7
623.464	495.6
623.913	488.4
624.361	490.3
624.81	489
625.259	477.7
625.707	486.4
626.156	489.9
626.604	499.5
627.053	487.7
627.501	492.1
627.95	499.1
628.398	507.5
628.847	493.9
629.295	493.5
629.744	502.7
630.192	489.1
630.64	494.3
631.089	494.4
631.537	501.1
631.985	501.6
632.433	514.4
632.881	513.6
633.33	568
633.778	549.8
634.226	484.5
634.674	494.1
635.122	499.2
635.57	512.9
636.018	544.2
636.466	504.7
636.914	478.8
637.362	496.6
637.81	491.4
638.258	500.6
638.705	499.2
639.153	529.5
639.601	534.3
640.049	553.2
640.497	576.2
640.944	610.8
641.392	551.8
641.84	529.2
642.287	513.8
642.735	493.6
643.182	494.4
643.63	494.8
644.078	497.8
644.525	500.8
644.973	507.4
645.42	518.1
645.867	542.1
646.315	561.3
646.762	571.2
647.21	598.1
647.657	616.3
648.104	663.8
648.551	662.5
648.999	719.6
649.446	777.4
649.893	856.4
650.34	989.4
650.787	1181.1
651.234	1476.4
651.682	1911.9
652.129	2620.4
652.576	3744.5
653.023	5551.7
653.47	7688.6
653.917	9706.3
654.363	11390.1
654.81	12778.3
655.257	12142.9
655.704	7850.7
656.151	4636.8
656.598	3004.4
657.044	2118.8
657.491	1609.6
657.938	1284.6
658.385	1071.5
658.831	928.6
659.278	842.6
659.724	740.2
660.171	681.4
660.618	620.6
661.064	590.1
661.511	569.8
661.957	553.7
662.404	548.9
662.85	543.3
663.296	530
663.743	487.4
664.189	459.1
664.635	461
665.082	441.2
665.528	450.7
665.974	440.5
666.42	437.4
666.867	431.8
667.313	414.3
667.759	411.9
668.205	410.9
668.651	414.8
669.097	427.4
669.543	436
669.989	404.7
670.435	388.6
670.881	375.6
671.327	394.4
671.773	396.2
672.219	418.6
672.665	464.5
673.11	494.1
673.556	530.8
674.002	572.1
674.448	563.6
674.893	467.9
675.339	410.6
675.785	375.7
676.23	362.1
676.676	331.9
677.122	316.6
677.567	309
678.013	315.1
678.458	300.6
678.904	303.8
679.349	294.3
679.794	294.7
680.24	298
680.685	295.6
681.131	297.5
681.576	299.4
682.021	302.1
682.466	297.1
682.912	291.6
683.357	297.9
683.802	313.9
684.247	341
684.692	383
685.137	427.1
685.583	453.9
686.028	487.1
686.473	448.1
686.918	378.8
687.363	351.8
687.807	334.4
688.252	313
688.697	298.4
689.142	284
689.587	271
690.032	273.5
690.477	289.9
690.921	301.9
691.366	325.9
691.811	339.4
692.255	369.2
692.7	391.2
693.145	420.4
693.589	571.4
694.034	941.5
694.478	1290.9
694.923	1493.4
695.367	1976.1
695.812	1030
696.256	428.7
696.701	311
697.145	290.3
697.59	277.1
698.034	270.3
698.478	278.2
698.922	276.2
699.367	272.8
699.811	287.4
700.255	297.9
700.699	325.8
701.143	360.3
701.588	400.5
702.032	435.5
702.476	433.5
702.92	416
703.364	407.4
703.808	528.5
704.252	849.6
704.696	1215.3
705.14	1438.7
705.584	1866.8
706.027	919.3
706.471	434.5
706.915	335.9
707.359	293.5
707.803	267.5
708.246	259.1
708.69	261.7
709.134	263.7
709.577	268.4
710.021	265
710.465	258.5
710.908	246.2
711.352	247.7
711.795	261
712.239	285.2
712.682	316.4
713.126	350.8
713.569	401.9
714.012	307.4
714.456	265.6
714.899	260
715.342	226.6
715.786	219.2
716.229	214
716.672	218.1
717.115	215
717.558	210.6
718.002	210.3
718.445	216.2
718.888	236.6
719.331	240.9
719.774	262.8
720.217	253.1
720.66	228.9
721.103	219.3
721.546	214.4
721.989	207.6
722.432	192.3
722.874	199.5
723.317	190.8
723.76	196.7
724.203	215.3
724.645	255.8
725.088	367.1
725.531	476.2
725.974	554.7
726.416	468.9
726.859	259.5
727.301	207.5
727.744	197.2
728.187	196
728.629	204.6
729.071	200
729.514	211.9
729.956	228.7
730.399	246.4
730.841	244.7
731.283	227.4
731.726	222.2
732.168	218.2
732.61	214.1
733.053	234.6
733.495	252.2
733.937	293.8
734.379	329.7
734.821	359.1
735.263	448.2
735.705	680.8
736.148	1272.5
736.59	2164.7
737.032	2660.3
737.474	2151.8
737.916	682.5
738.357	369.5
738.799	275.2
739.241	253.8
739.683	235.3
740.125	240.8
740.567	257.4
741.008	263.9
741.45	269.3
741.892	265.4
742.334	294.4
742.775	312.4
743.217	295.6
743.658	227
744.1	207.4
744.542	218.6
744.983	266.2
745.425	290.1
745.866	290
746.307	238.7
746.749	236.8
747.19	267.6
747.632	367.9
748.073	711.3
748.514	1530.3
748.956	2412.2
749.397	3012.2
749.838	2508.3
750.279	2579.4
750.72	1295.2
751.162	462.5
751.603	272.9
752.044	209.8
752.485	184.2
752.926	173
753.367	166.9
753.808	160.6
754.249	157.1
754.69	158.4
755.131	150.7
755.572	152.7
756.013	152.4
756.453	155.6
756.894	156.8
757.335	160.7
757.776	159.2
758.216	158.7
758.657	165.9
759.098	172.7
759.538	188
759.979	213.7
760.42	301
760.86	567.7
761.301	1474.6
761.741	3693.3
762.182	5664.4
762.622	3955
763.063	1128.8
763.503	460.7
763.943	289.1
764.384	288.3
764.824	355.5
765.264	402.1
765.705	258.1
766.145	183.4
766.585	152.5
767.025	146.5
767.465	149.7
767.906	201.2
768.346	277.2
768.786	299.3
769.226	219.3
769.666	261.1
770.106	497.1
770.546	1249.9
770.986	2285.6
771.426	2071.3
771.866	677.4
772.306	276.6
772.745	171.1
773.185	140.8
773.625	139.2
774.065	136.5
774.505	165.6
774.944	260.3
775.384	546
775.824	1039.2
776.263	1032.6
776.703	441.8
777.142	191.7
777.582	132.8
778.021	111.2
778.461	113.7
778.9	116.4
779.34	117.9
779.779	98.3
780.219	85.6
780.658	86.2
781.097	91.5
781.537	92.6
781.976	92.6
782.415	89.5
782.855	86.6
783.294	85.2
783.733	89.6
784.172	88.9
784.611	79.3
785.05	90.4
785.489	91.9
785.928	96.3
786.367	100.4
786.806	95.2
787.245	102.6
787.684	118.6
788.123	122.4
788.562	110.9
789.001	103.8
789.44	100
789.879	103.8
790.317	92.4
790.756	100.1
791.195	107.1
791.634	121.9
792.072	165.2
792.511	282.3
792.95	805.4
793.388	1831.2
793.827	1695.3
794.265	582.5
794.704	237.3
795.142	148.5
795.581	125.2
796.019	112.3
796.458	104.5
796.896	100.7
797.334	107.3
797.773	127.4
798.211	180.6
798.649	352.4
799.087	841.4
799.526	1345.6
799.964	1698.1
800.402	1743.2
800.84	651.3
801.278	250.4
801.716	160.8
802.154	129.2
802.592	121.4
803.03	117.9
803.468	113.6
803.906	126.3
804.344	123.3
804.782	118.6
805.22	115.3
805.658	110.7
806.096	121.3
806.533	126.1
806.971	140.9
807.409	179.8
807.847	256.5
808.284	526.4
808.722	1542.1
809.16	2830.5
809.597	2613.7
810.035	4619.2
810.472	5137.8
810.91	1815.6
811.347	666.4
811.785	334.3
812.222	212.2
812.66	163.5
813.097	135.3
813.535	116.9
813.972	114.5
814.409	100.6
814.846	91.9
815.284	92.3
815.721	87.7
816.158	88.2
816.595	99.1
817.032	142.6
817.47	165.2
817.907	144.2
818.344	121.9
818.781	94.1
819.218	85.4
819.655	103.2
820.092	150
820.529	186.3
820.966	154.2
821.403	117.4
821.839	89.7
822.276	83.9
822.713	103.5
823.15	112.2
823.587	97
824.023	123.1
824.46	240.5
824.897	742.1
825.333	1177.7
825.77	500.6
826.206	194.1
826.643	114.7
827.08	80.9
827.516	72.8
827.953	62.6
828.389	66.7
828.825	55.1
829.262	61.5
829.698	44.9
830.135	56.2
830.571	51.7
831.007	55.7
831.443	56.6
831.88	52.2
832.316	45.4
832.752	53.3
833.188	49.3
833.624	53.6
834.06	60.4
834.497	58.7
834.933	55.9
835.369	62.4
835.805	52.7
836.241	60.2
836.677	66
837.112	71.8
837.548	82.6
837.984	111.1
838.42	163.6
838.856	403
839.292	1271.8
839.727	2024
840.163	921
840.599	755.4
841.034	1727.2
841.47	1873.2
841.906	675.9
842.341	283
842.777	195.8
843.212	259.7
843.648	271.4
844.083	132.4
844.519	84
844.954	69.8
845.39	47.7
845.825	46.9
846.261	45.4
846.696	48.3
847.131	44.5
847.566	48.3
848.002	40.3
848.437	46.2
848.872	55.5
849.307	43.4
849.742	68.9
850.177	142.8
850.613	461
851.048	754.6
851.483	329.1
851.918	124.2
852.353	66.1
852.788	43.9
853.223	46.9
853.657	40.9
854.092	37.1
854.527	36.1
854.962	36.3
855.397	32.4
855.832	37.8
856.266	35.3
856.701	36.6
857.136	30.5
857.57	34.7
858.005	40.9
858.44	53.8
858.874	36
859.309	46.7
859.743	27.9
860.178	41
860.612	29.4
861.047	41.6
861.481	57.3
861.915	60
862.35	46
862.784	21.1
863.218	34
863.653	25.4
864.087	37.3
864.521	46.6
864.955	53.4
865.39	129
865.824	146.4
866.258	99
866.692	139.3
867.126	156.1
867.56	90.1
867.994	41.8
868.428	30.5
868.862	40.3
869.296	47.8
869.73	44.7
870.164	43.9
870.598	38.2
871.031	29.3
871.465	21.5
871.899	27.1
872.333	22.3
872.766	21.1
873.2	21.6
873.634	25.7
874.067	21.9
874.501	23.3
874.935	29.5
875.368	23.2
875.802	24.2
876.235	22.9
876.669	17.7
877.102	19.1
877.535	23.5
877.969	18.8
878.402	19.7
878.836	12.7
879.269	13.5
879.702	22
880.135	8.3
880.569	14.8
881.002	25.5
881.435	18.5
881.868	10.3
882.301	18.2
882.734	13
883.167	15.8
883.601	17.1
884.034	19.5
884.467	5.8
884.899	13.4
885.332	12.8
885.765	10.2
886.198	8.3
886.631	13.3
887.064	12.8
887.497	17.3
887.929	17
888.362	12
888.795	5.8
889.228	18.3
889.66	16.8
890.093	8.6
890.526	15.4
890.958	10
891.391	13.2
891.823	20.5
892.256	11.4
892.688	8.4
893.121	12.8
893.553	10.5
893.985	11.6
894.418	21.3
894.85	4.2
895.282	17.3
895.715	13.5
896.147	15
896.579	13
897.011	8.7
897.444	15.4
897.876	9.3
898.308	6.6
898.74	10.5
899.172	4.8
899.604	14.4
900.036	13.9
900.468	9.3
900.9	12.5
901.332	12.6
901.764	9.2
902.196	14.3
902.628	12.4
903.06	9.4
903.491	21.8
903.923	16.2
904.355	12.5
904.787	13.9
905.218	15.9
905.65	14.7
906.082	9
906.513	5.1
906.945	10.6
907.376	9.3
907.808	9.6
908.239	13.7
908.671	8.2
909.102	18.7
909.534	11.2
909.965	36
910.397	77.3
910.828	279.6
911.259	418.9
911.691	191.5
912.122	90.9
912.553	39.1
912.984	22
913.415	19.1
913.847	23.2
914.278	12
914.709	11.2
915.14	16.7
915.571	20.5
916.002	10.4
916.433	13.7
916.864	12.2
917.295	9.6
917.726	22.4
918.157	17.8
918.587	28.4
919.018	17
919.449	22.2
919.88	15.5
920.311	23.5
920.741	35.9
921.172	140.2
921.603	128.2
922.033	58.2
922.464	37.4
922.895	15.4
923.325	12.4
923.756	12.3
924.186	9.9
924.617	17.6
925.047	33.5
925.478	44.6
925.908	38.4
926.338	18.4
926.769	13
927.199	16.6
927.629	6.1
928.06	15.8
928.49	15.9
928.92	8.1
929.35	4.5
929.78	7.6
930.21	3.6
930.641	3.5
931.071	8.5
931.501	2.6
931.931	4.6
932.361	5.9
932.791	3.3
933.221	-1.3
933.651	2.6
934.08	10.7
934.51	28.5
934.94	5
935.37	8.4
935.8	13.8
936.229	11.8
936.659	13
937.089	-0.3
937.519	11.7
937.948	18.9
938.378	12.4
938.807	1.4
939.237	2
939.666	6.4
940.096	-6.8
940.525	0.9
940.955	1.5
941.384	2.5
941.814	-2.5
942.243	-5.9
942.672	0.5
943.102	-5.1
943.531	-4.4
943.96	3.3
944.39	3.9
944.819	0.1
945.248	2.3
945.677	-4.2
946.106	4.7
946.535	10.4
946.964	-3
947.393	-0.8
947.822	-3.6
948.251	-7.7
948.68	-2.8
949.109	-3.6
949.538	7.4
949.967	3.3
950.396	-1.8
950.825	-8.1
951.254	5.2
951.682	-7.5
952.111	-0.6
952.54	3.6
952.969	-1.3
953.397	-11.4
953.826	1.3
954.254	-4.8
954.683	-7.7
955.112	-5.4
955.54	-2.7
955.969	0.3
956.397	-6.9
956.826	-1.7
957.254	2.9
957.682	2.3
958.111	6
958.539	-6.4
958.967	-1
959.396	-4.5
959.824	-1.1
960.252	-2.4
960.68	-4.3
961.109	-3
961.537	-7.4
961.965	0.9
962.393	4
962.821	-3.1
963.249	-0.8
963.677	5.5
964.105	1.7
964.533	40.6
964.961	30.4
965.389	10.2
965.817	8.1
966.245	0.6
966.672	-0.1
967.1	-11.4
967.528	3.5
967.956	0
968.383	-3.8
968.811	-3.7
969.239	-2.1
969.666	-8.6
970.094	-1.6
970.522	4.4
970.949	-9.2
971.377	-7.5
971.804	-1.5
972.232	-6.2
972.659	-2
973.087	0.5
973.514	-4.6
973.941	-8.1
974.369	2.4
974.796	-4
975.223	3.5
975.651	-7
976.078	-1.1
976.505	-2.1
976.932	5.7
977.359	11.7
977.786	14.1
978.214	1.7
978.641	-5.5
979.068	-7.3
979.495	-12.3
979.922	-7.1
980.349	-8
980.776	0.8
981.202	-6
981.629	1.7
982.056	6.8
982.483	-3.6
982.91	4.9
983.337	-7.4
983.763	0.4
984.19	-4.4
984.617	-4.7
985.043	-7.7
985.47	-1.9
985.897	-6.7
986.323	-13.1
986.75	4.5
987.176	-5
987.603	-1.6
988.029	-4.3
988.456	-2.8
988.882	0.2
989.308	-8.9
989.735	-8.6
990.161	6.4
990.587	-3.3
991.014	-4.4
991.44	9.7
991.866	-10.1
992.292	0.6
992.719	-8.4
993.145	0
993.571	-9.3
993.997	-6.9
994.423	-0.1
994.849	-4.2
995.275	2
995.701	-5
996.127	-4.1
996.553	0.1
996.979	0.9
997.405	-7.8
997.83	-3.4
998.256	-3.8
998.682	-3.9
999.108	-10.1
999.534	-0.8
999.959	-2.5
1000.385	-4.8
1000.811	-4.6
1001.236	-7.1
1001.662	-10.1
1002.087	-12
1002.513	0.7
1002.938	0.5
1003.364	-3.7
1003.789	-3.2
1004.215	-3.4
1004.64	-3.7
1005.066	-0.1
1005.491	-2.5
1005.916	-7.3
1006.342	-4.1
1006.767	-12.6
1007.192	1.3
1007.617	-5.1
1008.042	-11.7
1008.468	-7.3
1008.893	-5.9
1009.318	-4.4
1009.743	-0.9
1010.168	2.8
1010.593	4.9
1011.018	-11.6
1011.443	-5
1011.868	-0.9
1012.293	-7.5
1012.718	-7.3
1013.143	-4.1
1013.567	-2.2
1013.992	-1.8
1014.417	-14.1
1014.842	-3
1015.267	-5.1
1015.691	-9.4
1016.116	2.8
1016.541	-1.5
1016.965	-1.8
1017.39	1
1017.814	-3.5
1018.239	-3.6
1018.663	-8.4
1019.088	-8.3
1019.512	-5
1019.937	-1
1020.361	-6.4
1020.785	-12.9
1021.21	-6.3
1021.634	-2.7
1022.058	0.8
1022.483	7.6
1022.907	-6.4
1023.331	-8.2
1023.755	-6.4
1024.179	-7.4
1024.604	-6.3
1025.028	-10.4
1025.452	-5.7
1025.876	-5.9
1026.3	5.7
1026.724	-7.4
1027.148	-8.8
1027.572	-8.9
1027.996	-2.1
1028.42	-4.8
1028.843	-5.8
1029.267	-8.1
1029.691	-3.4
1030.115	-6.8
1030.539	-8
1030.962	-9.6
1031.386	-11.7
1031.81	-4.5
1032.233	-0.2
1032.657	-2
1033.08	-6.2
1033.504	-5.3
1033.927	-2.6
1034.351	-4.6
1034.774	-4.5
1035.198	-7.1
1035.621	-10.7
1036.045	-10.5
1036.468	-2.2
1036.891	-12.5
1037.315	-12
1037.738	-8.7
1038.161	1.9
1038.584	-10.4
1039.008	-3.8
1039.431	-3.4
1039.854	-0.7
1040.277	-3.5
1040.7	-12.9
1041.123	-5.8
1041.546	-10.2
1041.969	-8.8
1042.392	-9
1042.815	-6.3
1043.238	-3.7
1043.661	0.2
1044.084	-15.4
1044.507	-9.7
1044.93	-10.4
1045.352	-4.3
1045.775	-7.2
1046.198	-5
1046.621	-3.3
1047.043	-4
1047.466	7.7
1047.889	-3.1
1048.311	-8.4
1048.734	-8.4
1049.156	-4.8
1049.579	-4.3
1050.001	-6.6
1050.424	-2.7
1050.846	-0.5
1051.269	-5.2
1051.691	-7.4
1052.113	-8.6
1052.536	-5
1052.958	0.7
1053.38	-0.5
1053.802	-10.4
1054.225	-1.4
1054.647	-11
1055.069	-3.2
1055.491	0.3
1055.913	-4.1
1056.335	5.3
1056.757	0.9
1057.179	-4.4
1057.601	-5
1058.023	-2.4
1058.445	-6.8
1058.867	-9.9
1059.289	-8.2
1059.711	-2.4
1060.133	-9.2
1060.555	-4
1060.976	-5.7
1061.398	-8.3
1061.82	-9.9
1062.241	-8.2
1062.663	-11.1
1063.085	-8.1
1063.506	5.1
1063.928	-6.4
1064.35	-4.4
1064.771	-9.9
1065.193	-2.3
1065.614	-13.4
1066.035	-11.8
1066.457	-5.4
1066.878	-5.1
1067.3	-6.8
1067.721	-4.6
1068.142	-1
1068.564	-5.8
1068.985	-3.6
1069.406	-6.4
1069.827	-4.7
1070.248	-2.7
1070.67	-7.3
1071.091	-8
1071.512	-1.2
1071.933	-4.6
1072.354	-5.5
1072.775	-1.2
1073.196	-5.7
1073.617	-6
1074.038	-8.1
1074.459	-4.5
1074.88	-6.3
1075.3	-1.3
1075.721	-1.8
1076.142	-0.7
1076.563	-2.6
1076.983	-11.1
1077.404	-12.5
1077.825	-11
1078.246	-8.8
1078.666	-7.8
1079.087	-8
1079.507	-6.1
1079.928	-2.5
1080.348	-1.3
1080.769	-5.4
1081.189	1.5
1081.61	0
1082.03	-7.4
1082.451	-8.1
1082.871	-2.9
1083.291	-3.7
1083.711	-7.4
1084.132	-8.5
1084.552	-3.5
1084.972	-0.9
1085.392	-12.8
1085.813	-13.4
1086.233	-9.6
1086.653	-16.5
1087.073	-0.4
1087.493	-10.3
1087.913	-11.3
1088.333	-4.2
1088.753	-2.7
1089.173	-3.7
1089.593	-7.6
1090.013	-4
1090.433	-5.6
1090.852	-2.3
1091.272	-5.2
1091.692	-5.8
1092.112	-8
1092.531	-9
1092.951	-15
1093.371	-7.2
1093.79	-4.7
1094.21	-5.6
1094.63	-6.9
1095.049	-7.2
1095.469	-2.7
1095.888	-5.8
1096.308	2.8
1096.727	-0.9
1097.146	-7.1
1097.566	-0.7
1097.985	-11.7
1098.405	0.4
1098.824	-8.3
1099.243	-4.9
1099.662	-6.4
1100.082	-6.8
1100.501	-5.3
1100.92	-5.5
1101.339	-2.7
1101.758	-3.5
