Data from 20171114-ORNL-Ar_H_NY_Subt18_08-08-21-935.txt Node
Date: Tue Nov 14 08:08:21 EST 2017
User: Ender
Spectrometer: HR+D1039
Trigger mode: 0
Integration Time (sec): 2.730000E-2
Scans to average: 10
Electric dark correction enabled: true
Nonlinearity correction enabled: false
Boxcar width: 0
XAxis mode: Wavelengths
Number of Pixels in Spectrum: 2048
>>>>>Begin Spectral Data<<<<<
187.836	-2.66
188.309	-2.66
188.782	-2.66
189.255	-6.06
189.728	-3.36
190.201	5.24
190.674	5.04
191.147	3.74
191.619	-5.36
192.092	-0.16
192.565	2.84
193.038	4.04
193.511	1.14
193.984	0.04
194.456	-0.86
194.929	0.64
195.402	-2.16
195.874	-2.06
196.347	-7.46
196.82	-6.76
197.292	6.34
197.765	-1.56
198.237	-6.16
198.71	-1.06
199.182	-1.56
199.655	-3.46
200.127	1.34
200.6	-0.96
201.072	-2.36
201.544	-2.26
202.017	-4.46
202.489	0.04
202.961	-4.66
203.433	-1.16
203.906	-8.46
204.378	-7.06
204.85	-1.46
205.322	-9.76
205.794	-2.66
206.266	-13.46
206.739	-10.96
207.211	-1.46
207.683	-8.86
208.155	-4.26
208.627	-6.36
209.099	-5.36
209.57	-4.86
210.042	-5.16
210.514	-7.26
210.986	0.04
211.458	-10.26
211.93	-0.16
212.402	2.64
212.873	-3.66
213.345	-7.86
213.817	-11.66
214.288	-3.96
214.76	-5.86
215.232	-4.46
215.703	-10.46
216.175	-2.36
216.646	-6.46
217.118	-8.76
217.589	-0.46
218.061	-5.36
218.532	-4.96
219.004	-5.56
219.475	-5.06
219.946	-3.06
220.418	-5.06
220.889	4.34
221.36	-0.86
221.832	-1.36
222.303	-3.56
222.774	4.54
223.245	-10.36
223.717	-8.96
224.188	-3.56
224.659	-6.36
225.13	-0.66
225.601	1.74
226.072	0.14
226.543	0.64
227.014	-2.26
227.485	-1.36
227.956	-6.86
228.427	-4.06
228.898	1.14
229.369	0.84
229.839	-5.16
230.31	-9.56
230.781	-3.76
231.252	-5.16
231.722	-12.46
232.193	-1.26
232.664	-6.96
233.135	-4.26
233.605	0.64
234.076	-5.16
234.546	0.14
235.017	-1.26
235.487	-6.96
235.958	-0.46
236.428	-5.66
236.899	1.34
237.369	5.74
237.84	-4.76
238.31	3.04
238.78	-0.56
239.251	-1.76
239.721	1.54
240.191	1.04
240.662	-5.06
241.132	-7.56
241.602	-1.16
242.072	-2.86
242.542	9.04
243.013	1.74
243.483	1.64
243.953	-4.46
244.423	2.84
244.893	1.84
245.363	2.54
245.833	-0.26
246.303	-3.16
246.773	3.64
247.243	-1.56
247.712	7.04
248.182	10.34
248.652	7.74
249.122	-3.86
249.592	8.04
250.061	13.74
250.531	27.14
251.001	13.64
251.471	19.14
251.94	18.44
252.41	1.04
252.879	0.84
253.349	13.74
253.818	5.74
254.288	7.94
254.757	4.84
255.227	7.04
255.696	1.34
256.166	3.84
256.635	5.94
257.105	5.44
257.574	-1.06
258.043	7.64
258.513	8.04
258.982	16.44
259.451	4.44
259.92	16.24
260.389	10.84
260.859	10.24
261.328	9.84
261.797	20.44
262.266	3.84
262.735	10.04
263.204	-0.66
263.673	0.04
264.142	6.94
264.611	-6.96
265.08	3.24
265.549	1.44
266.018	10.54
266.487	-1.26
266.955	-1.26
267.424	-2.46
267.893	8.14
268.362	-5.36
268.83	3.24
269.299	7.74
269.768	6.74
270.236	4.44
270.705	-0.16
271.174	9.44
271.642	5.34
272.111	5.84
272.579	10.04
273.048	26.54
273.516	29.24
273.985	28.04
274.453	26.74
274.922	19.04
275.39	8.14
275.858	-0.06
276.327	13.04
276.795	18.54
277.263	6.74
277.731	22.24
278.2	56.34
278.668	54.14
279.136	36.44
279.604	20.34
280.072	10.94
280.54	8.74
281.008	9.64
281.477	19.14
281.945	7.94
282.413	15.24
282.881	16.74
283.348	4.44
283.816	20.24
284.284	17.84
284.752	20.04
285.22	11.54
285.688	14.24
286.156	18.14
286.623	42.64
287.091	48.54
287.559	24.34
288.026	22.04
288.494	13.64
288.962	9.14
289.429	11.14
289.897	20.54
290.364	13.04
290.832	19.64
291.3	14.94
291.767	16.64
292.234	17.54
292.702	17.14
293.169	22.94
293.637	18.64
294.104	15.04
294.571	3.14
295.039	13.94
295.506	15.24
295.973	16.54
296.44	16.04
296.908	21.44
297.375	18.34
297.842	19.54
298.309	14.64
298.776	11.14
299.243	19.44
299.71	11.94
300.177	26.64
300.644	24.54
301.111	23.94
301.578	23.14
302.045	13.64
302.512	24.34
302.979	23.14
303.446	23.14
303.913	16.44
304.379	20.14
304.846	32.54
305.313	28.44
305.78	23.94
306.246	24.34
306.713	27.04
307.18	26.54
307.646	28.64
308.113	24.24
308.579	21.44
309.046	29.64
309.512	23.34
309.979	20.84
310.445	29.34
310.912	28.94
311.378	30.04
311.845	27.94
312.311	29.44
312.777	33.04
313.244	31.04
313.71	38.74
314.176	28.94
314.642	28.64
315.109	32.84
315.575	35.34
316.041	35.84
316.507	37.74
316.973	39.24
317.439	35.44
317.905	33.04
318.371	30.54
318.837	32.54
319.303	31.64
319.769	28.64
320.235	35.14
320.701	35.54
321.167	39.64
321.633	34.04
322.099	35.14
322.564	45.74
323.03	36.94
323.496	35.94
323.962	35.24
324.427	44.84
324.893	43.64
325.359	31.44
325.824	34.54
326.29	33.54
326.755	36.94
327.221	34.34
327.686	38.54
328.152	44.44
328.617	39.64
329.083	49.04
329.548	50.14
330.014	44.54
330.479	39.14
330.944	44.44
331.41	46.24
331.875	48.54
332.34	40.64
332.805	44.64
333.271	43.74
333.736	40.64
334.201	54.04
334.666	47.34
335.131	52.84
335.596	47.34
336.061	48.84
336.526	42.94
336.991	52.64
337.456	53.74
337.921	43.74
338.386	38.14
338.851	44.84
339.316	48.84
339.781	40.14
340.246	52.54
340.711	42.24
341.175	51.44
341.64	38.34
342.105	49.94
342.569	55.24
343.034	56.34
343.499	55.24
343.963	53.44
344.428	64.64
344.893	59.64
345.357	60.34
345.822	60.74
346.286	70.74
346.751	71.24
347.215	65.74
347.679	83.04
348.144	98.64
348.608	86.74
349.073	62.74
349.537	69.64
350.001	74.74
350.465	89.04
350.93	81.14
351.394	80.54
351.858	67.74
352.322	90.54
352.786	84.74
353.25	99.04
353.715	111.14
354.179	96.74
354.643	125.54
355.107	128.14
355.571	106.34
356.035	107.74
356.498	117.84
356.962	127.04
357.426	131.34
357.89	116.04
358.354	86.54
358.818	87.24
359.281	77.44
359.745	76.44
360.209	73.04
360.673	70.14
361.136	81.54
361.6	82.44
362.064	85.84
362.527	79.54
362.991	88.14
363.454	81.34
363.918	79.74
364.381	78.54
364.845	77.04
365.308	87.34
365.772	87.74
366.235	88.74
366.698	87.74
367.162	89.34
367.625	91.74
368.088	93.54
368.552	89.64
369.015	90.84
369.478	96.94
369.941	100.04
370.404	97.44
370.867	117.94
371.331	109.84
371.794	118.54
372.257	116.04
372.72	119.04
373.183	112.34
373.646	108.84
374.109	100.94
374.572	113.84
375.035	114.94
375.497	103.04
375.96	100.24
376.423	102.04
376.886	116.94
377.349	113.64
377.811	106.14
378.274	102.84
378.737	108.34
379.199	110.84
379.662	116.04
380.125	121.54
380.587	116.44
381.05	124.64
381.512	130.74
381.975	131.94
382.437	128.24
382.9	132.34
383.362	139.04
383.825	148.24
384.287	153.14
384.75	148.24
385.212	145.44
385.674	138.74
386.136	144.04
386.599	123.64
387.061	132.84
387.523	133.54
387.985	142.64
388.447	143.74
388.91	149.54
389.372	167.74
389.834	158.64
390.296	148.24
390.758	159.64
391.22	177.24
391.682	214.84
392.144	302.24
392.606	232.74
393.068	174.34
393.529	167.74
393.991	162.44
394.453	152.64
394.915	161.44
395.377	205.84
395.838	226.04
396.3	160.84
396.762	142.74
397.224	142.54
397.685	133.44
398.147	133.04
398.608	130.94
399.07	132.14
399.531	142.74
399.993	143.54
400.454	155.04
400.916	141.94
401.377	150.24
401.839	150.84
402.3	150.74
402.762	171.24
403.223	186.34
403.684	178.14
404.145	162.84
404.607	164.34
405.068	168.74
405.529	175.74
405.99	201.94
406.451	183.54
406.913	178.64
407.374	171.64
407.835	165.64
408.296	173.04
408.757	179.44
409.218	198.84
409.679	187.04
410.14	181.94
410.601	184.44
411.062	190.64
411.522	196.04
411.983	197.54
412.444	186.94
412.905	189.44
413.366	188.54
413.826	192.54
414.287	218.24
414.748	263.54
415.208	253.44
415.669	217.34
416.13	213.64
416.59	211.54
417.051	220.84
417.511	221.74
417.972	244.84
418.432	245.54
418.893	297.44
419.353	255.94
419.814	199.94
420.274	192.94
420.734	183.74
421.195	204.14
421.655	206.84
422.115	199.94
422.576	196.54
423.036	207.84
423.496	216.54
423.956	222.14
424.416	245.14
424.876	278.54
425.336	265.34
425.797	268.74
426.257	267.34
426.717	249.64
427.177	238.04
427.637	235.74
428.097	246.14
428.556	256.14
429.016	277.14
429.476	270.64
429.936	291.34
430.396	289.84
430.856	299.34
431.315	327.04
431.775	357.04
432.235	394.74
432.694	364.44
433.154	380.94
433.614	409.24
434.073	356.54
434.533	292.94
434.993	276.14
435.452	288.14
435.912	302.84
436.371	296.64
436.83	296.84
437.29	272.54
437.749	263.54
438.209	250.14
438.668	280.84
439.127	300.34
439.587	266.04
440.046	251.64
440.505	263.94
440.964	286.04
441.424	332.94
441.883	322.74
442.342	265.94
442.801	231.04
443.26	222.64
443.719	227.34
444.178	226.74
444.637	216.14
445.096	231.74
445.555	227.54
446.014	229.14
446.473	234.04
446.932	237.34
447.391	231.74
447.849	232.64
448.308	219.34
448.767	224.54
449.226	238.34
449.685	244.64
450.143	256.04
450.602	244.84
451.061	230.84
451.519	243.34
451.978	235.74
452.436	240.54
452.895	248.34
453.353	256.64
453.812	244.64
454.27	245.94
454.729	243.64
455.187	246.14
455.646	255.24
456.104	255.74
456.562	261.94
457.021	274.04
457.479	269.74
457.937	277.64
458.395	270.64
458.854	262.64
459.312	264.64
459.77	282.84
460.228	265.84
460.686	247.74
461.144	254.24
461.602	249.04
462.06	247.94
462.518	262.74
462.976	257.74
463.434	264.44
463.892	275.14
464.35	283.74
464.808	294.14
465.266	273.94
465.724	274.54
466.181	276.34
466.639	280.54
467.097	291.34
467.555	302.04
468.012	301.64
468.47	310.94
468.928	329.84
469.385	350.24
469.843	353.14
470.3	353.64
470.758	365.84
471.215	390.74
471.673	421.54
472.13	416.64
472.588	431.34
473.045	379.44
473.503	378.14
473.96	391.04
474.417	402.14
474.875	440.34
475.332	493.44
475.789	474.24
476.246	478.94
476.704	494.24
477.161	515.34
477.618	538.14
478.075	569.44
478.532	629.14
478.989	702.64
479.446	821.04
479.903	782.04
480.36	818.14
480.817	882.24
481.274	975.04
481.731	1082.94
482.188	1179.64
482.645	1316.14
483.102	1416.74
483.558	1563.84
484.015	1616.44
484.472	1588.64
484.929	1541.34
485.385	1496.14
485.842	1447.04
486.299	1380.14
486.755	1319.94
487.212	1107.34
487.668	938.54
488.125	862.64
488.582	788.44
489.038	748.84
489.494	722.74
489.951	689.64
490.407	676.64
490.864	672.84
491.32	652.14
491.776	646.74
492.233	663.24
492.689	620.14
493.145	615.54
493.602	610.04
494.058	628.74
494.514	621.14
494.97	647.64
495.426	662.84
495.882	629.14
496.338	626.14
496.794	637.14
497.251	623.64
497.707	636.14
498.163	646.54
498.618	643.34
499.074	645.84
499.53	687.54
499.986	690.34
500.442	662.84
500.898	638.34
501.354	634.74
501.809	646.34
502.265	658.84
502.721	674.84
503.177	679.64
503.632	676.04
504.088	681.14
504.543	722.54
504.999	726.94
505.455	665.24
505.91	640.14
506.366	633.54
506.821	635.04
507.277	636.04
507.732	629.54
508.187	631.84
508.643	638.14
509.098	634.54
509.553	661.84
510.009	672.84
510.464	677.14
510.919	700.24
511.375	711.14
511.83	720.24
512.285	726.74
512.74	769.24
513.195	791.74
513.65	778.64
514.105	773.64
514.56	781.44
515.015	795.64
515.47	811.24
515.925	792.74
516.38	794.64
516.835	791.24
517.29	788.44
517.745	781.04
518.2	770.44
518.655	751.84
519.109	748.94
519.564	753.34
520.019	732.74
520.474	730.84
520.928	731.64
521.383	721.14
521.838	716.24
522.292	721.84
522.747	710.74
523.201	709.34
523.656	706.64
524.11	704.54
524.565	706.54
525.019	700.44
525.474	707.64
525.928	705.44
526.382	703.04
526.837	703.74
527.291	712.34
527.745	698.04
528.2	703.04
528.654	691.74
529.108	692.64
529.562	695.54
530.016	705.04
530.47	697.84
530.925	696.84
531.379	701.44
531.833	703.94
532.287	704.94
532.741	709.04
533.195	709.94
533.649	718.04
534.103	724.44
534.556	716.24
535.01	719.14
535.464	712.14
535.918	725.44
536.372	720.74
536.826	735.74
537.279	715.74
537.733	709.54
538.187	723.84
538.64	716.74
539.094	728.34
539.548	734.94
540.001	716.84
540.455	735.44
540.908	735.44
541.362	745.84
541.815	753.94
542.269	766.14
542.722	768.24
543.175	780.84
543.629	772.34
544.082	792.94
544.536	800.74
544.989	792.74
545.442	803.44
545.895	801.04
546.349	809.64
546.802	803.94
547.255	802.24
547.708	806.94
548.161	824.14
548.614	838.94
549.067	840.14
549.52	827.74
549.973	821.94
550.426	811.64
550.879	804.24
551.332	812.14
551.785	805.04
552.238	812.44
552.691	821.04
553.144	840.74
553.596	849.44
554.049	880.84
554.502	898.54
554.955	916.74
555.407	922.94
555.86	906.04
556.313	905.14
556.765	882.24
557.218	902.94
557.67	894.94
558.123	879.44
558.576	874.24
559.028	886.14
559.48	897.04
559.933	877.34
560.385	847.94
560.838	811.24
561.29	795.24
561.742	785.04
562.195	780.74
562.647	771.44
563.099	784.84
563.551	789.54
564.004	790.74
564.456	783.24
564.908	776.24
565.36	752.04
565.812	748.24
566.264	740.54
566.716	733.54
567.168	718.14
567.62	730.34
568.072	717.14
568.524	703.94
568.976	706.14
569.428	684.54
569.88	677.64
570.332	683.84
570.784	698.14
571.235	683.84
571.687	701.74
572.139	708.84
572.59	725.74
573.042	711.64
573.494	723.14
573.945	713.54
574.397	686.34
574.849	692.94
575.3	702.64
575.752	688.74
576.203	681.14
576.655	692.44
577.106	682.54
577.557	673.54
578.009	674.54
578.46	680.44
578.912	683.14
579.363	675.04
579.814	678.44
580.265	676.24
580.717	676.24
581.168	679.54
581.619	687.04
582.07	685.54
582.521	690.34
582.972	681.64
583.423	684.24
583.875	699.14
584.326	713.44
584.777	766.94
585.227	850.64
585.678	938.44
586.129	1027.04
586.58	1115.54
587.031	1198.54
587.482	1344.64
587.933	1539.14
588.384	1332.74
588.834	995.14
589.285	824.44
589.736	798.64
590.186	792.54
590.637	779.64
591.088	758.74
591.538	753.94
591.989	752.14
592.439	746.34
592.89	732.94
593.34	716.74
593.791	723.24
594.241	713.44
594.692	731.64
595.142	711.14
595.593	707.24
596.043	720.84
596.493	728.94
596.943	732.24
597.394	743.44
597.844	727.54
598.294	735.74
598.744	764.04
599.195	789.14
599.645	833.84
600.095	882.34
600.545	936.84
600.995	985.14
601.445	1035.84
601.895	1108.14
602.345	1154.94
602.795	1123.14
603.245	1080.64
603.695	1027.84
604.145	965.14
604.594	921.44
605.044	870.24
605.494	825.04
605.944	762.34
606.393	752.94
606.843	746.84
607.293	744.64
607.743	739.94
608.192	764.84
608.642	777.64
609.091	785.34
609.541	783.84
609.99	780.34
610.44	787.74
610.889	732.44
611.339	708.54
611.788	704.14
612.238	722.24
612.687	735.24
613.136	746.84
613.586	759.84
614.035	759.34
614.484	766.14
614.933	780.04
615.383	757.14
615.832	753.34
616.281	733.04
616.73	697.04
617.179	677.74
617.628	675.24
618.077	640.94
618.526	634.74
618.975	628.44
619.424	629.44
619.873	624.84
620.322	622.74
620.771	621.14
621.22	623.54
621.669	603.04
622.118	604.34
622.567	593.34
623.015	589.64
623.464	583.64
623.913	569.14
624.361	556.84
624.81	560.14
625.259	562.64
625.707	566.84
626.156	558.74
626.604	571.14
627.053	579.44
627.501	576.24
627.95	581.44
628.398	592.54
628.847	584.24
629.295	581.14
629.744	588.74
630.192	574.94
630.64	585.84
631.089	577.14
631.537	593.54
631.985	599.24
632.433	609.04
632.881	627.54
633.33	679.14
633.778	658.64
634.226	585.04
634.674	581.64
635.122	598.54
635.57	615.64
636.018	644.54
636.466	601.94
636.914	571.04
637.362	587.94
637.81	586.94
638.258	588.74
638.705	594.34
639.153	614.04
639.601	631.14
640.049	651.84
640.497	679.54
640.944	704.14
641.392	654.74
641.84	621.54
642.287	598.84
642.735	582.94
643.182	596.74
643.63	586.44
644.078	593.84
644.525	602.54
644.973	593.64
645.42	617.14
645.867	643.44
646.315	651.14
646.762	679.24
647.21	710.44
647.657	721.74
648.104	768.04
648.551	790.54
648.999	861.14
649.446	948.74
649.893	1035.74
650.34	1200.44
650.787	1432.64
651.234	1790.94
651.682	2343.24
652.129	3225.54
652.576	4665.64
653.023	6839.04
653.47	9349.74
653.917	11560.54
654.363	13251.84
654.81	14543.94
655.257	13862.74
655.704	9076.54
656.151	5398.54
656.598	3493.04
657.044	2473.54
657.491	1906.04
657.938	1524.54
658.385	1257.14
658.831	1103.94
659.278	971.04
659.724	869.54
660.171	804.54
660.618	738.44
661.064	702.54
661.511	682.64
661.957	674.64
662.404	658.64
662.85	666.94
663.296	637.74
663.743	573.94
664.189	546.14
664.635	543.14
665.082	540.34
665.528	545.34
665.974	526.44
666.42	525.24
666.867	518.24
667.313	500.14
667.759	496.44
668.205	496.84
668.651	492.34
669.097	499.14
669.543	516.24
669.989	482.74
670.435	462.04
670.881	459.04
671.327	458.34
671.773	475.84
672.219	504.94
672.665	559.84
673.11	596.04
673.556	643.54
674.002	686.74
674.448	668.84
674.893	564.84
675.339	489.94
675.785	452.54
676.23	428.64
676.676	399.24
677.122	388.04
677.567	383.84
678.013	377.74
678.458	367.74
678.904	361.84
679.349	360.14
679.794	355.94
680.24	363.94
680.685	353.94
681.131	356.54
681.576	358.64
682.021	359.44
682.466	350.54
682.912	360.24
683.357	362.84
683.802	388.44
684.247	417.14
684.692	467.84
685.137	511.34
685.583	538.64
686.028	561.94
686.473	530.44
686.918	453.24
687.363	416.84
687.807	397.74
688.252	368.54
688.697	353.34
689.142	346.04
689.587	334.64
690.032	333.14
690.477	347.34
690.921	355.64
691.366	392.34
691.811	410.14
692.255	440.24
692.7	469.04
693.145	521.14
693.589	735.94
694.034	1183.54
694.478	1586.24
694.923	1758.94
695.367	2277.74
695.812	1203.84
696.256	510.64
696.701	387.04
697.145	347.34
697.59	336.24
698.034	331.44
698.478	339.74
698.922	335.64
699.367	340.44
699.811	342.84
700.255	366.84
700.699	401.54
701.143	445.34
701.588	479.84
702.032	529.34
702.476	525.34
702.92	496.04
703.364	509.94
703.808	669.94
704.252	1088.64
704.696	1497.04
705.14	1702.64
705.584	2154.74
706.027	1079.84
706.471	540.04
706.915	406.14
707.359	361.54
707.803	331.14
708.246	315.04
708.69	321.84
709.134	317.04
709.577	317.24
710.021	323.94
710.465	311.94
710.908	310.94
711.352	309.24
711.795	319.54
712.239	364.24
712.682	399.74
713.126	430.84
713.569	469.64
714.012	379.34
714.456	324.54
714.899	302.34
715.342	279.04
715.786	268.74
716.229	263.04
716.672	261.24
717.115	263.14
717.558	254.44
718.002	255.64
718.445	271.04
718.888	296.74
719.331	298.44
719.774	325.54
720.217	313.54
720.66	290.34
721.103	269.94
721.546	263.24
721.989	253.54
722.432	235.14
722.874	239.04
723.317	237.24
723.76	241.44
724.203	261.94
724.645	333.54
725.088	455.04
725.531	583.54
725.974	652.34
726.416	557.84
726.859	316.24
727.301	251.54
727.744	244.44
728.187	234.74
728.629	244.14
729.071	253.84
729.514	265.04
729.956	285.34
730.399	291.14
730.841	296.84
731.283	281.44
731.726	268.04
732.168	265.24
732.61	276.44
733.053	296.94
733.495	328.44
733.937	365.34
734.379	416.24
734.821	454.34
735.263	565.44
735.705	884.14
736.148	1657.34
736.59	2652.84
737.032	3056.74
737.474	2474.54
737.916	827.34
738.357	441.14
738.799	338.54
739.241	304.94
739.683	289.74
740.125	296.34
740.567	302.14
741.008	315.04
741.45	326.94
741.892	328.04
742.334	359.74
742.775	361.54
743.217	340.64
743.658	271.74
744.1	257.94
744.542	265.44
744.983	319.54
745.425	346.64
745.866	352.94
746.307	293.64
746.749	285.44
747.19	342.04
747.632	479.74
748.073	939.14
748.514	1956.74
748.956	2912.04
749.397	3669.14
749.838	3014.34
750.279	2973.04
750.72	1515.44
751.162	559.84
751.603	335.94
752.044	259.84
752.485	219.64
752.926	215.04
753.367	204.64
753.808	200.54
754.249	192.24
754.69	190.74
755.131	186.24
755.572	181.74
756.013	186.84
756.453	184.64
756.894	199.24
757.335	200.84
757.776	199.14
758.216	194.64
758.657	202.04
759.098	209.84
759.538	225.34
759.979	271.04
760.42	387.14
760.86	745.54
761.301	1953.54
761.741	4588.64
762.182	6395.64
762.622	4492.64
763.063	1330.04
763.503	550.04
763.943	362.24
764.384	355.44
764.824	426.44
765.264	452.14
765.705	320.74
766.145	217.14
766.585	186.64
767.025	183.64
767.465	196.04
767.906	253.24
768.346	337.94
768.786	357.84
769.226	272.14
769.666	325.74
770.106	669.34
770.546	1645.94
770.986	2659.24
771.426	2380.24
771.866	805.54
772.306	338.34
772.745	211.74
773.185	183.04
773.625	178.34
774.065	171.54
774.505	206.14
774.944	322.24
775.384	711.24
775.824	1241.84
776.263	1178.44
776.703	513.34
777.142	223.24
777.582	160.64
778.021	146.04
778.461	145.54
778.9	139.84
779.34	137.34
779.779	121.54
780.219	116.14
780.658	112.24
781.097	114.34
781.537	117.04
781.976	110.64
782.415	116.94
782.855	109.24
783.294	102.14
783.733	105.44
784.172	109.14
784.611	110.44
785.05	111.54
785.489	114.94
785.928	121.64
786.367	118.14
786.806	118.94
787.245	136.74
787.684	137.04
788.123	146.74
788.562	138.84
789.001	127.44
789.44	126.54
789.879	122.64
790.317	123.34
790.756	133.44
791.195	121.44
791.634	150.54
792.072	214.34
792.511	392.34
792.95	1082.34
793.388	2168.74
793.827	1937.24
794.265	691.54
794.704	285.34
795.142	188.64
795.581	158.74
796.019	135.94
796.458	132.34
796.896	129.84
797.334	133.54
797.773	163.04
798.211	230.14
798.649	467.44
799.087	1064.04
799.526	1657.94
799.964	2065.04
800.402	2010.54
800.84	770.64
801.278	318.64
801.716	195.24
802.154	158.44
802.592	145.94
803.03	142.54
803.468	138.84
803.906	149.14
804.344	159.14
804.782	144.54
805.22	136.44
805.658	136.34
806.096	149.34
806.533	149.84
806.971	177.64
807.409	227.94
807.847	318.44
808.284	700.04
808.722	1941.04
809.16	3323.14
809.597	3239.14
810.035	5550.24
810.472	5681.94
810.91	2083.84
811.347	815.14
811.785	414.04
812.222	266.74
812.66	199.94
813.097	167.54
813.535	143.74
813.972	133.84
814.409	120.94
814.846	115.84
815.284	111.14
815.721	99.04
816.158	105.64
816.595	125.34
817.032	188.24
817.47	203.94
817.907	168.34
818.344	155.34
818.781	126.44
819.218	100.24
819.655	129.84
820.092	187.04
820.529	210.34
820.966	181.74
821.403	128.14
821.839	111.94
822.276	104.24
822.713	120.44
823.15	134.64
823.587	125.34
824.023	156.44
824.46	320.54
824.897	946.84
825.333	1350.14
825.77	576.04
826.206	232.64
826.643	139.44
827.08	102.34
827.516	82.64
827.953	77.94
828.389	80.14
828.825	69.84
829.262	69.24
829.698	66.44
830.135	63.14
830.571	61.64
831.007	59.14
831.443	64.04
831.88	67.84
832.316	63.74
832.752	69.84
833.188	67.94
833.624	64.34
834.06	65.34
834.497	71.24
834.933	73.64
835.369	78.34
835.805	72.44
836.241	73.44
836.677	83.24
837.112	92.44
837.548	107.14
837.984	135.14
838.42	208.34
838.856	526.54
839.292	1557.64
839.727	2314.44
840.163	1070.34
840.599	963.94
841.034	2105.64
841.47	2109.64
841.906	795.04
842.341	343.74
842.777	231.84
843.212	334.04
843.648	314.54
844.083	149.94
844.519	98.14
844.954	82.74
845.39	59.44
845.825	60.54
846.261	58.84
846.696	55.84
847.131	49.84
847.566	62.34
848.002	51.04
848.437	55.14
848.872	63.34
849.307	59.94
849.742	86.94
850.177	191.34
850.613	573.14
851.048	881.74
851.483	386.84
851.918	156.84
852.353	86.54
852.788	59.04
853.223	58.64
853.657	60.54
854.092	46.04
854.527	43.84
854.962	37.64
855.397	47.14
855.832	47.34
856.266	40.54
856.701	40.14
857.136	39.54
857.57	44.54
858.005	49.64
858.44	55.24
858.874	44.14
859.309	54.74
859.743	40.44
860.178	45.14
860.612	42.84
861.047	51.74
861.481	68.84
861.915	70.64
862.35	43.44
862.784	40.74
863.218	40.64
863.653	32.34
864.087	41.74
864.521	58.04
864.955	71.44
865.39	161.34
865.824	181.74
866.258	117.54
866.692	159.64
867.126	167.44
867.56	104.84
867.994	50.74
868.428	36.14
868.862	47.64
869.296	56.04
869.73	58.34
870.164	58.84
870.598	50.84
871.031	35.04
871.465	32.74
871.899	28.54
872.333	28.34
872.766	32.54
873.2	22.24
873.634	29.64
874.067	24.34
874.501	24.44
874.935	32.24
875.368	31.74
875.802	22.04
876.235	19.64
876.669	23.24
877.102	24.14
877.535	29.44
877.969	26.54
878.402	24.54
878.836	19.94
879.269	27.24
879.702	27.74
880.135	17.74
880.569	22.34
881.002	26.64
881.435	20.34
881.868	17.94
882.301	24.44
882.734	13.94
883.167	28.64
883.601	16.14
884.034	16.64
884.467	16.04
884.899	20.74
885.332	14.44
885.765	20.54
886.198	15.64
886.631	17.54
887.064	19.34
887.497	20.04
887.929	27.44
888.362	18.54
888.795	13.14
889.228	17.94
889.66	20.84
890.093	17.94
890.526	20.14
890.958	15.24
891.391	21.84
891.823	19.64
892.256	13.44
892.688	7.24
893.121	15.24
893.553	16.64
893.985	26.54
894.418	18.64
894.85	18.74
895.282	11.24
895.715	15.54
896.147	17.04
896.579	17.74
897.011	19.04
897.444	12.74
897.876	17.94
898.308	15.74
898.74	18.14
899.172	16.04
899.604	17.34
900.036	20.94
900.468	11.34
900.9	12.14
901.332	17.14
901.764	10.34
902.196	15.94
902.628	17.14
903.06	12.04
903.491	22.74
903.923	19.04
904.355	16.24
904.787	23.94
905.218	19.54
905.65	20.94
906.082	9.44
906.513	11.84
906.945	15.14
907.376	10.34
907.808	18.44
908.239	19.94
908.671	23.94
909.102	25.14
909.534	25.14
909.965	49.84
910.397	97.04
910.828	320.24
911.259	477.14
911.691	211.74
912.122	106.94
912.553	54.04
912.984	37.14
913.415	29.74
913.847	21.54
914.278	17.74
914.709	16.44
915.14	17.04
915.571	17.34
916.002	12.64
916.433	25.34
916.864	20.14
917.295	14.84
917.726	17.94
918.157	18.94
918.587	27.64
919.018	18.34
919.449	22.44
919.88	27.74
920.311	34.54
920.741	46.34
921.172	169.94
921.603	155.34
922.033	77.24
922.464	48.84
922.895	22.64
923.325	16.14
923.756	15.94
924.186	15.64
924.617	26.74
925.047	45.04
925.478	52.74
925.908	42.54
926.338	25.14
926.769	16.54
927.199	18.54
927.629	15.24
928.06	17.04
928.49	18.44
928.92	15.04
929.35	10.44
929.78	13.14
930.21	6.84
930.641	12.64
931.071	8.84
931.501	7.24
931.931	9.94
932.361	9.04
932.791	5.04
933.221	5.44
933.651	2.14
934.08	17.34
934.51	27.24
934.94	10.34
935.37	7.04
935.8	10.44
936.229	5.14
936.659	12.14
937.089	0.14
937.519	16.14
937.948	26.14
938.378	19.74
938.807	6.94
939.237	3.64
939.666	7.14
940.096	-6.86
940.525	0.54
940.955	2.54
941.384	6.24
941.814	-5.26
942.243	-3.26
942.672	8.24
943.102	-0.16
943.531	0.14
943.96	2.34
944.39	-0.46
944.819	1.04
945.248	6.84
945.677	4.34
946.106	1.04
946.535	4.94
946.964	1.24
947.393	1.54
947.822	4.54
948.251	-7.16
948.68	6.04
949.109	3.34
949.538	1.44
949.967	-1.06
950.396	2.44
950.825	-2.16
951.254	3.14
951.682	-1.86
952.111	3.24
952.54	4.34
952.969	-3.66
953.397	-3.06
953.826	0.84
954.254	-3.96
954.683	4.94
955.112	-0.26
955.54	0.24
955.969	0.04
956.397	4.04
956.826	-1.36
957.254	2.84
957.682	4.24
958.111	6.34
958.539	2.34
958.967	0.94
959.396	-4.36
959.824	4.64
960.252	2.14
960.68	-3.56
961.109	-6.36
961.537	-7.66
961.965	0.04
962.393	0.74
962.821	-3.46
963.249	2.14
963.677	7.24
964.105	3.44
964.533	45.44
964.961	37.04
965.389	24.04
965.817	6.84
966.245	1.34
966.672	0.14
967.1	-1.26
967.528	-1.06
967.956	-9.26
968.383	-3.76
968.811	-1.16
969.239	-1.86
969.666	-2.86
970.094	-1.16
970.522	0.94
970.949	-6.36
971.377	-2.56
971.804	-3.46
972.232	2.04
972.659	-0.86
973.087	-3.86
973.514	-11.46
973.941	-1.96
974.369	4.34
974.796	1.44
975.223	1.44
975.651	-3.16
976.078	-2.26
976.505	-1.86
976.932	2.84
977.359	14.24
977.786	16.04
978.214	-0.56
978.641	-2.66
979.068	-5.86
979.495	-6.16
979.922	0.74
980.349	-2.46
980.776	-0.36
981.202	-1.46
981.629	0.14
982.056	1.74
982.483	-2.46
982.91	3.24
983.337	-8.56
983.763	0.84
984.19	-5.76
984.617	-8.56
985.043	-5.46
985.47	-2.46
985.897	-3.06
986.323	-7.66
986.75	2.44
987.176	-0.76
987.603	-1.66
988.029	-3.46
988.456	-6.36
988.882	6.34
989.308	-5.26
989.735	-4.56
990.161	0.74
990.587	-7.26
991.014	-3.66
991.44	-0.46
991.866	0.04
992.292	-3.46
992.719	-9.76
993.145	1.34
993.571	-9.36
993.997	-3.66
994.423	-3.76
994.849	-5.96
995.275	7.24
995.701	1.64
996.127	-1.66
996.553	1.54
996.979	-0.36
997.405	-1.96
997.83	-1.76
998.256	-2.36
998.682	0.44
999.108	-10.26
999.534	-1.56
999.959	-3.66
1000.385	-3.66
1000.811	0.04
1001.236	-10.36
1001.662	-6.66
1002.087	-12.26
1002.513	-3.36
1002.938	2.34
1003.364	-1.56
1003.789	-4.16
1004.215	5.04
1004.64	-1.36
1005.066	0.34
1005.491	-0.36
1005.916	-2.06
1006.342	-0.86
1006.767	-9.46
1007.192	6.14
1007.617	-3.36
1008.042	-4.16
1008.468	-6.56
1008.893	-4.96
1009.318	-2.76
1009.743	-2.46
1010.168	4.04
1010.593	4.74
1011.018	-10.46
1011.443	-3.36
1011.868	3.14
1012.293	-3.66
1012.718	-3.96
1013.143	0.04
1013.567	-0.86
1013.992	-0.36
1014.417	-12.46
1014.842	2.34
1015.267	-1.16
1015.691	-1.46
1016.116	3.64
1016.541	-5.26
1016.965	0.54
1017.39	4.34
1017.814	-2.46
1018.239	-8.56
1018.663	-6.06
1019.088	-11.56
1019.512	-7.36
1019.937	1.04
1020.361	-4.56
1020.785	-10.36
1021.21	-1.96
1021.634	-0.16
1022.058	0.54
1022.483	3.74
1022.907	-5.56
1023.331	-5.76
1023.755	-6.16
1024.179	-0.36
1024.604	-5.46
1025.028	-10.26
1025.452	-8.56
1025.876	-4.16
1026.3	-0.56
1026.724	-10.16
1027.148	-1.06
1027.572	-9.06
1027.996	-6.46
1028.42	-1.56
1028.843	-5.46
1029.267	-4.46
1029.691	-2.36
1030.115	-10.66
1030.539	-6.36
1030.962	-4.66
1031.386	-10.16
1031.81	3.24
1032.233	-1.06
1032.657	-7.56
1033.08	-3.16
1033.504	-4.06
1033.927	-5.36
1034.351	4.94
1034.774	-3.46
1035.198	-2.46
1035.621	-10.46
1036.045	-5.96
1036.468	3.54
1036.891	-10.86
1037.315	-12.26
1037.738	-7.96
1038.161	-2.16
1038.584	-8.56
1039.008	-9.56
1039.431	-8.46
1039.854	-2.26
1040.277	-7.86
1040.7	-9.86
1041.123	-1.46
1041.546	-12.36
1041.969	-3.26
1042.392	-5.26
1042.815	-0.76
1043.238	-1.06
1043.661	1.64
1044.084	-11.96
1044.507	-11.66
1044.93	-8.26
1045.352	-6.66
1045.775	4.14
1046.198	0.14
1046.621	4.14
1047.043	-2.16
1047.466	7.24
1047.889	-5.56
1048.311	-4.96
1048.734	3.04
1049.156	-1.66
1049.579	0.64
1050.001	0.04
1050.424	-1.96
1050.846	-4.26
1051.269	-2.76
1051.691	-8.56
1052.113	-8.06
1052.536	-0.96
1052.958	-0.76
1053.38	-7.26
1053.802	-10.16
1054.225	-1.96
1054.647	-8.76
1055.069	-2.96
1055.491	-3.76
1055.913	-6.46
1056.335	-3.56
1056.757	-2.06
1057.179	-8.26
1057.601	-3.56
1058.023	-2.66
1058.445	-4.46
1058.867	-1.96
1059.289	-6.36
1059.711	-9.96
1060.133	-8.66
1060.555	-6.96
1060.976	-4.76
1061.398	-4.96
1061.82	-6.96
1062.241	-9.96
1062.663	-6.96
1063.085	-3.46
1063.506	-3.76
1063.928	-4.16
1064.35	-6.76
1064.771	-10.26
1065.193	1.24
1065.614	-7.76
1066.035	-2.86
1066.457	-2.36
1066.878	-3.56
1067.3	-7.66
1067.721	-3.56
1068.142	-8.56
1068.564	-5.66
1068.985	-6.96
1069.406	-4.26
1069.827	-11.46
1070.248	0.24
1070.67	-6.96
1071.091	-1.36
1071.512	-1.26
1071.933	-3.36
1072.354	-6.66
1072.775	-4.56
1073.196	-11.56
1073.617	-0.26
1074.038	-7.76
1074.459	-9.56
1074.88	-8.56
1075.3	-4.16
1075.721	-9.36
1076.142	1.64
1076.563	-5.06
1076.983	-10.86
1077.404	-2.36
1077.825	-11.56
1078.246	-13.66
1078.666	-10.36
1079.087	-10.96
1079.507	-5.86
1079.928	-0.56
1080.348	-2.26
1080.769	-0.46
1081.189	0.04
1081.61	-4.66
1082.03	-9.76
1082.451	-6.96
1082.871	-4.86
1083.291	-9.96
1083.711	-12.36
1084.132	-6.56
1084.552	-4.76
1084.972	-7.16
1085.392	-9.36
1085.813	-11.26
1086.233	-6.96
1086.653	-7.56
1087.073	-7.16
1087.493	-7.16
1087.913	-7.46
1088.333	-8.76
1088.753	-5.46
1089.173	-0.76
1089.593	-7.06
1090.013	-0.36
1090.433	-0.66
1090.852	-8.06
1091.272	-1.46
1091.692	-3.46
1092.112	-10.56
1092.531	-4.16
1092.951	-16.46
1093.371	-1.26
1093.79	-3.86
1094.21	-4.46
1094.63	-5.76
1095.049	-3.86
1095.469	-4.06
1095.888	-4.16
1096.308	0.74
1096.727	1.94
1097.146	-5.06
1097.566	-5.56
1097.985	-13.06
1098.405	-4.16
1098.824	-7.26
1099.243	-5.56
1099.662	-10.26
1100.082	-2.16
1100.501	1.24
1100.92	-7.06
1101.339	-5.76
1101.758	-9.16
