Data from 20171114-ORNL-Ar_H_NY_Subt18_08-07-58-732.txt Node
Date: Tue Nov 14 08:07:58 EST 2017
User: Ender
Spectrometer: HR+D1039
Trigger mode: 0
Integration Time (sec): 2.730000E-2
Scans to average: 10
Electric dark correction enabled: true
Nonlinearity correction enabled: false
Boxcar width: 0
XAxis mode: Wavelengths
Number of Pixels in Spectrum: 2048
>>>>>Begin Spectral Data<<<<<
187.836	-4.2
188.309	-4.2
188.782	-4.2
189.255	-2.5
189.728	-4.6
190.201	5.6
190.674	4.9
191.147	3.8
191.619	-7.3
192.092	1.5
192.565	8
193.038	-1.5
193.511	2.3
193.984	3.2
194.456	-5.6
194.929	0.6
195.402	-4.3
195.874	0.1
196.347	-2.6
196.82	-7.7
197.292	9.8
197.765	-4.6
198.237	-8.5
198.71	1.8
199.182	-0.7
199.655	-0.1
200.127	1.9
200.6	-8.3
201.072	-6
201.544	1.6
202.017	-5
202.489	7.9
202.961	-0.9
203.433	0.4
203.906	-10.2
204.378	-1.1
204.85	-7.8
205.322	-5.1
205.794	-1.7
206.266	-2.6
206.739	-6.1
207.211	-2.7
207.683	-6.7
208.155	-6
208.627	-3
209.099	0.1
209.57	-4.9
210.042	-9.9
210.514	-5.9
210.986	-2.1
211.458	-6.8
211.93	-4
212.402	-2.7
212.873	-6.6
213.345	-10.1
213.817	-15.9
214.288	-9.1
214.76	-13.6
215.232	0.4
215.703	-2.9
216.175	-1.7
216.646	-0.2
217.118	-3
217.589	-2.1
218.061	2.1
218.532	-1.9
219.004	-3.7
219.475	-7.4
219.946	0.4
220.418	-7.1
220.889	3.6
221.36	-1
221.832	-5
222.303	-5.6
222.774	5.8
223.245	-9.2
223.717	-1.7
224.188	-2.2
224.659	-6.4
225.13	-7.7
225.601	-2.6
226.072	3.7
226.543	-0.2
227.014	-1.7
227.485	-5.1
227.956	-10.9
228.427	-1.6
228.898	-0.1
229.369	3.2
229.839	-4.5
230.31	-8.1
230.781	-3.3
231.252	1.1
231.722	-5
232.193	-3.2
232.664	-2.8
233.135	2.8
233.605	2.8
234.076	1.3
234.546	-0.1
235.017	8.1
235.487	-1.4
235.958	-3.4
236.428	0.9
236.899	0.4
237.369	-0.5
237.84	-1
238.31	2.2
238.78	4.4
239.251	3
239.721	2.3
240.191	-0.7
240.662	-1.8
241.132	2.8
241.602	-3.6
242.072	1.2
242.542	10.5
243.013	1.6
243.483	9.4
243.953	5.5
244.423	4.5
244.893	-8.3
245.363	3.7
245.833	1.7
246.303	-3.6
246.773	3.4
247.243	4
247.712	1.5
248.182	11.6
248.652	3.2
249.122	-0
249.592	8.5
250.061	18
250.531	30.7
251.001	14.4
251.471	22.1
251.94	17.3
252.41	5.6
252.879	1.7
253.349	8.9
253.818	9.1
254.288	4.6
254.757	-1
255.227	8.2
255.696	3.9
256.166	4.2
256.635	4
257.105	12.2
257.574	2.7
258.043	12.2
258.513	6.6
258.982	13.7
259.451	4.1
259.92	11.1
260.389	8.2
260.859	12.3
261.328	8.5
261.797	15.6
262.266	11.6
262.735	10.3
263.204	6
263.673	2.9
264.142	6.5
264.611	-1
265.08	-1
265.549	0.2
266.018	7.9
266.487	-1
266.955	-1.2
267.424	0.1
267.893	5.5
268.362	2.6
268.83	8.7
269.299	13.1
269.768	7
270.236	10.3
270.705	2.4
271.174	6.5
271.642	7.9
272.111	11.4
272.579	14.1
273.048	21.8
273.516	24.5
273.985	22.1
274.453	19.5
274.922	13.2
275.39	6.4
275.858	3
276.327	11.6
276.795	12.7
277.263	9.3
277.731	22
278.2	43.6
278.668	53.7
279.136	43.2
279.604	17.9
280.072	15.6
280.54	13
281.008	7.4
281.477	10.5
281.945	8.5
282.413	14.4
282.881	14.8
283.348	5.1
283.816	14.4
284.284	12.4
284.752	21.2
285.22	13.2
285.688	12.9
286.156	18.2
286.623	44
287.091	54
287.559	27.9
288.026	14.3
288.494	16.6
288.962	6.7
289.429	7.8
289.897	16
290.364	15.3
290.832	14.3
291.3	10
291.767	17.5
292.234	17.1
292.702	19.8
293.169	16
293.637	23.4
294.104	16.3
294.571	10.3
295.039	17.1
295.506	11.6
295.973	15.1
296.44	16.3
296.908	17.8
297.375	15
297.842	18
298.309	13.6
298.776	10
299.243	22
299.71	8.7
300.177	14.4
300.644	21.4
301.111	21.2
301.578	22.8
302.045	16.3
302.512	20.8
302.979	25.5
303.446	21.3
303.913	17
304.379	14.9
304.846	27.8
305.313	22.8
305.78	23
306.246	27.5
306.713	20.1
307.18	22.7
307.646	23.2
308.113	24.4
308.579	21
309.046	24.4
309.512	26.9
309.979	18.9
310.445	18.3
310.912	31
311.378	34.3
311.845	29.6
312.311	29.1
312.777	27.6
313.244	25.5
313.71	36.2
314.176	26
314.642	32.4
315.109	28.2
315.575	29.3
316.041	34.1
316.507	29.9
316.973	30.6
317.439	27.6
317.905	33.2
318.371	33.3
318.837	32.7
319.303	31.6
319.769	30.9
320.235	31.5
320.701	31.1
321.167	35.3
321.633	33.7
322.099	37.7
322.564	41.5
323.03	37.7
323.496	40.5
323.962	42.2
324.427	28.4
324.893	37.5
325.359	36.2
325.824	28.6
326.29	33
326.755	42.6
327.221	41.4
327.686	38.3
328.152	43
328.617	36.5
329.083	43.1
329.548	47.4
330.014	44.9
330.479	37.9
330.944	39.9
331.41	41.7
331.875	39.9
332.34	38.6
332.805	37.8
333.271	52.8
333.736	44.9
334.201	56.2
334.666	44.7
335.131	52
335.596	47.6
336.061	50.6
336.526	42.8
336.991	49.6
337.456	53.5
337.921	43.6
338.386	44.1
338.851	43.5
339.316	47.5
339.781	45.4
340.246	51.5
340.711	43.3
341.175	51.5
341.64	38.9
342.105	53.2
342.569	48.8
343.034	56.7
343.499	51
343.963	49
344.428	58.2
344.893	62.3
345.357	59.8
345.822	54.9
346.286	63.6
346.751	78.2
347.215	70
347.679	68.6
348.144	100.2
348.608	75.8
349.073	64.8
349.537	69.3
350.001	76.7
350.465	88.3
350.93	76.1
351.394	74.2
351.858	68.6
352.322	83.5
352.786	86.1
353.25	99.1
353.715	110.5
354.179	91.3
354.643	122.2
355.107	120.6
355.571	107.5
356.035	100.2
356.498	109.6
356.962	122
357.426	123.7
357.89	115.9
358.354	82.9
358.818	78.2
359.281	76
359.745	69.2
360.209	70.5
360.673	81.5
361.136	76.2
361.6	79.5
362.064	83
362.527	79.8
362.991	83.1
363.454	75.6
363.918	72.7
364.381	76.3
364.845	76.3
365.308	82.7
365.772	86.3
366.235	81.5
366.698	85.3
367.162	85.4
367.625	79.9
368.088	86.2
368.552	84
369.015	84.6
369.478	99.8
369.941	102.7
370.404	92.3
370.867	95.5
371.331	104
371.794	117.2
372.257	103.9
372.72	119.4
373.183	106.4
373.646	103.8
374.109	101.9
374.572	105.7
375.035	103.2
375.497	108.7
375.96	102.8
376.423	104.4
376.886	114.9
377.349	108.6
377.811	103.2
378.274	106.5
378.737	104.4
379.199	108.1
379.662	104.2
380.125	115.7
380.587	111.8
381.05	121.6
381.512	133
381.975	134.9
382.437	125.5
382.9	126.2
383.362	132.7
383.825	136.9
384.287	144.4
384.75	137.1
385.212	136.6
385.674	134
386.136	136.5
386.599	121.6
387.061	122.1
387.523	130.1
387.985	136.5
388.447	139.5
388.91	141.5
389.372	160.9
389.834	152.8
390.296	147.2
390.758	150.2
391.22	165.4
391.682	212.2
392.144	292.9
392.606	231.6
393.068	175.2
393.529	170
393.991	154.3
394.453	144.2
394.915	151.3
395.377	200.4
395.838	212.6
396.3	153.8
396.762	147.9
397.224	133.7
397.685	125.5
398.147	124.4
398.608	128.3
399.07	135.3
399.531	133.7
399.993	135.9
400.454	146.6
400.916	143.2
401.377	144.2
401.839	148.4
402.3	145.1
402.762	163
403.223	182.4
403.684	168.6
404.145	158.1
404.607	161.4
405.068	166.3
405.529	170.7
405.99	190.1
406.451	180.2
406.913	170.2
407.374	167.4
407.835	162.5
408.296	168.8
408.757	171.3
409.218	181.6
409.679	178
410.14	174.7
410.601	173
411.062	178.3
411.522	192.6
411.983	188.3
412.444	169.1
412.905	176.8
413.366	181.1
413.826	187.5
414.287	213.3
414.748	265.5
415.208	242.8
415.669	210.4
416.13	200.2
416.59	198
417.051	211.9
417.511	216.7
417.972	231.4
418.432	243.4
418.893	292
419.353	244.3
419.814	201.8
420.274	186
420.734	179.1
421.195	192.9
421.655	194.4
422.115	187
422.576	190.8
423.036	198.9
423.496	214
423.956	215.9
424.416	231.5
424.876	256.9
425.336	247.5
425.797	260.7
426.257	249.6
426.717	236.5
427.177	232.1
427.637	220
428.097	234.8
428.556	242.3
429.016	268.2
429.476	261.3
429.936	280.3
430.396	284.3
430.856	277.7
431.315	312.6
431.775	346.1
432.235	378.6
432.694	352.1
433.154	363.8
433.614	397.7
434.073	339.1
434.533	283.4
434.993	275.1
435.452	284
435.912	298.6
436.371	280.3
436.83	286.1
437.29	273.4
437.749	251.2
438.209	244
438.668	278.5
439.127	295.3
439.587	258.2
440.046	251.8
440.505	255.5
440.964	273.5
441.424	321.8
441.883	312
442.342	261
442.801	224.6
443.26	216.1
443.719	220.8
444.178	220.8
444.637	211.2
445.096	216.4
445.555	222.6
446.014	221.7
446.473	223.7
446.932	229.1
447.391	220.1
447.849	220.9
448.308	219.1
448.767	220.4
449.226	232.5
449.685	234.1
450.143	243.7
450.602	228.3
451.061	223.9
451.519	239.6
451.978	233.9
452.436	228.4
452.895	245.4
453.353	253.1
453.812	236.2
454.27	238.1
454.729	234
455.187	245
455.646	243.8
456.104	244.7
456.562	256.4
457.021	267.3
457.479	259.8
457.937	267.5
458.395	258.7
458.854	246.7
459.312	254.4
459.77	272.7
460.228	249.2
460.686	240.7
461.144	249
461.602	248.3
462.06	235.7
462.518	249.8
462.976	248.8
463.434	248.5
463.892	251.7
464.35	270.7
464.808	284.3
465.266	262.6
465.724	260.7
466.181	263.2
466.639	267.9
467.097	290.4
467.555	291.8
468.012	298.6
468.47	303.2
468.928	320.5
469.385	343.4
469.843	341.5
470.3	346.7
470.758	354.8
471.215	376.2
471.673	406.9
472.13	402.3
472.588	408.6
473.045	375.2
473.503	379
473.96	389.2
474.417	404.3
474.875	430
475.332	470.4
475.789	453.7
476.246	460.8
476.704	477.7
477.161	509.1
477.618	524.7
478.075	553.9
478.532	607.8
478.989	684.3
479.446	805.4
479.903	761.6
480.36	799
480.817	856.1
481.274	955.4
481.731	1043.7
482.188	1150.7
482.645	1281.1
483.102	1378.6
483.558	1511.3
484.015	1570.3
484.472	1561.9
484.929	1489
485.385	1448.8
485.842	1410.7
486.299	1345.8
486.755	1276.7
487.212	1079.2
487.668	911.9
488.125	837.3
488.582	772.2
489.038	732.9
489.494	706.4
489.951	673.7
490.407	653.7
490.864	630.1
491.32	636.8
491.776	632.4
492.233	641.1
492.689	595.4
493.145	592.6
493.602	578.7
494.058	604.2
494.514	596.9
494.97	628.4
495.426	634.8
495.882	604.4
496.338	596.4
496.794	609.2
497.251	608
497.707	619.1
498.163	611.3
498.618	624.7
499.074	622.3
499.53	660.1
499.986	667.5
500.442	642.4
500.898	622
501.354	618.7
501.809	627.2
502.265	631.8
502.721	643.7
503.177	660.3
503.632	659.7
504.088	672.5
504.543	708.2
504.999	704.6
505.455	641.5
505.91	614.7
506.366	626.9
506.821	622.2
507.277	617.8
507.732	616.4
508.187	613
508.643	626.8
509.098	619.5
509.553	654.1
510.009	653.2
510.464	657.2
510.919	676.6
511.375	687.2
511.83	691
512.285	704.8
512.74	746.9
513.195	758.3
513.65	758.3
514.105	752.8
514.56	755.5
515.015	776.9
515.47	788.1
515.925	777.6
516.38	771.8
516.835	784.3
517.29	766.8
517.745	756.6
518.2	756.8
518.655	728.9
519.109	735.2
519.564	720.8
520.019	715.4
520.474	705.6
520.928	713.4
521.383	700.4
521.838	695
522.292	710.4
522.747	701.6
523.201	687.9
523.656	681.1
524.11	677.6
524.565	675.8
525.019	673.1
525.474	679.4
525.928	688.8
526.382	685
526.837	682.5
527.291	682.2
527.745	685
528.2	677.2
528.654	673
529.108	674.2
529.562	669.6
530.016	679.9
530.47	683.7
530.925	675.3
531.379	688.7
531.833	682.6
532.287	679.9
532.741	684.5
533.195	694.4
533.649	697.2
534.103	706.6
534.556	688.6
535.01	691.2
535.464	696.1
535.918	704.1
536.372	702.9
536.826	701
537.279	699.5
537.733	703.2
538.187	695.1
538.64	706.9
539.094	701.3
539.548	713.5
540.001	706.8
540.455	707.2
540.908	716
541.362	719.3
541.815	730.8
542.269	750
542.722	749.8
543.175	751.6
543.629	755.3
544.082	771.6
544.536	775.4
544.989	766.3
545.442	776.3
545.895	775.4
546.349	774.9
546.802	769.8
547.255	781.2
547.708	790.4
548.161	801.5
548.614	803.4
549.067	813.9
549.52	811.9
549.973	798.8
550.426	792.4
550.879	776.6
551.332	779.2
551.785	793.4
552.238	794.3
552.691	800.4
553.144	810.5
553.596	837.9
554.049	850.5
554.502	881.2
554.955	893.3
555.407	901.5
555.86	883.8
556.313	881.4
556.765	867.3
557.218	853.1
557.67	866
558.123	855.7
558.576	851.5
559.028	860.1
559.48	855.7
559.933	852.8
560.385	806.5
560.838	786.5
561.29	768
561.742	768.3
562.195	752.4
562.647	749.7
563.099	757.9
563.551	764.1
564.004	766.8
564.456	764.5
564.908	745.8
565.36	740.5
565.812	719.9
566.264	710.6
566.716	709.4
567.168	701.8
567.62	712.7
568.072	692.6
568.524	687.2
568.976	675
569.428	661.4
569.88	668.9
570.332	669.3
570.784	672.9
571.235	665.4
571.687	676.3
572.139	685.6
572.59	692.2
573.042	704.5
573.494	703.5
573.945	695.4
574.397	666.8
574.849	683.9
575.3	677.7
575.752	677.4
576.203	663.5
576.655	679
577.106	654
577.557	648.5
578.009	656.6
578.46	652.6
578.912	643.5
579.363	657.4
579.814	656.5
580.265	654.3
580.717	657.4
581.168	651.4
581.619	664.4
582.07	671.9
582.521	656.1
582.972	657.7
583.423	673.8
583.875	670.4
584.326	686.7
584.777	743.3
585.227	822.9
585.678	909.9
586.129	1006
586.58	1086.2
587.031	1161
587.482	1322.6
587.933	1500.5
588.384	1288.4
588.834	969.6
589.285	793.2
589.736	763.2
590.186	766.1
590.637	763
591.088	735
591.538	740.9
591.989	720.2
592.439	709.1
592.89	704.5
593.34	700.7
593.791	699.5
594.241	695.9
594.692	695.4
595.142	689.6
595.593	693.3
596.043	696.5
596.493	706.8
596.943	705.1
597.394	710.1
597.844	711.6
598.294	716.8
598.744	744.5
599.195	772.5
599.645	807.1
600.095	842.2
600.545	896
600.995	963.7
601.445	1009.3
601.895	1062.2
602.345	1124.3
602.795	1089.9
603.245	1046.9
603.695	1000.1
604.145	942.5
604.594	900.8
605.044	843.6
605.494	789.9
605.944	751.4
606.393	728.9
606.843	712.7
607.293	728
607.743	722.9
608.192	732.1
608.642	743
609.091	759.1
609.541	753.9
609.99	763.3
610.44	757.4
610.889	712.5
611.339	694
611.788	671.5
612.238	689.1
612.687	707.7
613.136	715.8
613.586	729.7
614.035	734.2
614.484	751.3
614.933	749.9
615.383	732.4
615.832	730.3
616.281	718.5
616.73	687.2
617.179	660.5
617.628	642.4
618.077	622.1
618.526	621.8
618.975	609.9
619.424	604.3
619.873	614.3
620.322	612.8
620.771	591.8
621.22	595.8
621.669	586.8
622.118	574.7
622.567	578.3
623.015	569.5
623.464	562.5
623.913	553
624.361	546.6
624.81	550.9
625.259	547.1
625.707	551.5
626.156	545.3
626.604	554.9
627.053	550.3
627.501	555.6
627.95	558.1
628.398	570.5
628.847	561.8
629.295	560.6
629.744	569.8
630.192	558.4
630.64	566.4
631.089	563.1
631.537	583.8
631.985	588.7
632.433	603.2
632.881	606.3
633.33	665.4
633.778	645.4
634.226	573
634.674	570.4
635.122	568.6
635.57	595
636.018	624.4
636.466	579.1
636.914	559.7
637.362	575.1
637.81	574.3
638.258	571.7
638.705	582.5
639.153	607.4
639.601	609.3
640.049	642
640.497	655.3
640.944	682.8
641.392	631.1
641.84	609.1
642.287	571.3
642.735	561.4
643.182	572.8
643.63	568.9
644.078	562.3
644.525	586.3
644.973	586.5
645.42	593.4
645.867	621.7
646.315	640.6
646.762	655.7
647.21	681.9
647.657	703.2
648.104	740.7
648.551	761.8
648.999	828.4
649.446	914.4
649.893	1006.3
650.34	1154.1
650.787	1401.2
651.234	1733.7
651.682	2275.9
652.129	3142.2
652.576	4532.9
653.023	6644.3
653.47	9114.4
653.917	11280.6
654.363	12976.3
654.81	14284.8
655.257	13580.8
655.704	8854.9
656.151	5228.4
656.598	3409.2
657.044	2409.9
657.491	1840.2
657.938	1477.9
658.385	1235.5
658.831	1075.9
659.278	959.5
659.724	837.5
660.171	789.9
660.618	720.8
661.064	679.1
661.511	656.2
661.957	646.4
662.404	642.6
662.85	648.1
663.296	617
663.743	561.5
664.189	526.9
664.635	522.7
665.082	523.5
665.528	515.8
665.974	510.8
666.42	505.7
666.867	503.3
667.313	488.7
667.759	477.9
668.205	475.6
668.651	481.9
669.097	481.6
669.543	500.6
669.989	470.7
670.435	451.8
670.881	435.9
671.327	439.2
671.773	463.4
672.219	491
672.665	540.1
673.11	582.2
673.556	613.3
674.002	659.3
674.448	640.1
674.893	545
675.339	469.9
675.785	437.4
676.23	418.5
676.676	387.6
677.122	379.5
677.567	368.2
678.013	368.1
678.458	357
678.904	350
679.349	335.7
679.794	343.7
680.24	350.5
680.685	347.1
681.131	344.1
681.576	343.4
682.021	353.4
682.466	347.4
682.912	343.2
683.357	344.4
683.802	381.7
684.247	407.8
684.692	457.5
685.137	488.5
685.583	520.4
686.028	545.4
686.473	505.2
686.918	437.2
687.363	402
687.807	395
688.252	365.6
688.697	356.3
689.142	332.4
689.587	327
690.032	330
690.477	337.8
690.921	343.1
691.366	376.6
691.811	397.7
692.255	425.5
692.7	457.7
693.145	508.1
693.589	705.3
694.034	1139.5
694.478	1531.7
694.923	1702.1
695.367	2192.3
695.812	1170
696.256	494.5
696.701	365.4
697.145	339.1
697.59	330.5
698.034	321.6
698.478	328.2
698.922	316.7
699.367	324
699.811	335.2
700.255	348
700.699	384.3
701.143	417.6
701.588	478.7
702.032	506.1
702.476	513.9
702.92	477.2
703.364	478.6
703.808	638.2
704.252	1044.8
704.696	1435.5
705.14	1637.7
705.584	2087.8
706.027	1047.3
706.471	522.2
706.915	391.9
707.359	344.9
707.803	311
708.246	312.7
708.69	313.5
709.134	309.3
709.577	311.2
710.021	313.1
710.465	307.2
710.908	294.7
711.352	292.9
711.795	309.7
712.239	351.6
712.682	385.1
713.126	413.1
713.569	458.5
714.012	368.7
714.456	316.8
714.899	288.8
715.342	270.6
715.786	258.9
716.229	254.8
716.672	242.5
717.115	238.4
717.558	241.2
718.002	249.3
718.445	258.9
718.888	292.5
719.331	298.7
719.774	308.8
720.217	294.6
720.66	279.1
721.103	268.4
721.546	250.1
721.989	252
722.432	227.5
722.874	237.4
723.317	220.9
723.76	234.8
724.203	253
724.645	311.6
725.088	446
725.531	573.1
725.974	633.2
726.416	540.6
726.859	302.4
727.301	241.6
727.744	234.2
728.187	229.3
728.629	240.5
729.071	243
729.514	264.3
729.956	265.4
730.399	284.5
730.841	281.4
731.283	271.3
731.726	261.5
732.168	257
732.61	261
733.053	280.6
733.495	318.2
733.937	353
734.379	396.2
734.821	440.8
735.263	541.6
735.705	839.4
736.148	1581.9
736.59	2566.1
737.032	2980.5
737.474	2404.6
737.916	794.5
738.357	423.6
738.799	324.1
739.241	292.8
739.683	279.6
740.125	284.8
740.567	299.1
741.008	306.3
741.45	312.4
741.892	314.8
742.334	342.3
742.775	346.7
743.217	336.6
743.658	268.6
744.1	255.1
744.542	250.7
744.983	308.3
745.425	330.1
745.866	336.7
746.307	279
746.749	282.1
747.19	321.4
747.632	453
748.073	900.4
748.514	1883.7
748.956	2814.5
749.397	3522
749.838	2931.3
750.279	2868.3
750.72	1463.9
751.162	538
751.603	315.6
752.044	245.8
752.485	214.6
752.926	208
753.367	198.3
753.808	193.4
754.249	188.8
754.69	184.6
755.131	185.6
755.572	183.2
756.013	178.5
756.453	182.2
756.894	188.8
757.335	187
757.776	191.3
758.216	191.8
758.657	194.8
759.098	197.6
759.538	229.3
759.979	269
760.42	371.8
760.86	718.7
761.301	1873.1
761.741	4446.1
762.182	6231.6
762.622	4383.1
763.063	1291.1
763.503	531.9
763.943	344.1
764.384	345.5
764.824	419.4
765.264	448
765.705	304.2
766.145	209.8
766.585	186
767.025	174.1
767.465	182.8
767.906	241.6
768.346	318.1
768.786	348.6
769.226	265.5
769.666	326.2
770.106	634.8
770.546	1560.7
770.986	2573.5
771.426	2292.9
771.866	784.7
772.306	331.7
772.745	203.3
773.185	173.2
773.625	171.3
774.065	170.9
774.505	195.7
774.944	319.8
775.384	703.3
775.824	1245.4
776.263	1192.2
776.703	508.8
777.142	221.9
777.582	156.3
778.021	135
778.461	138.2
778.9	141.1
779.34	133
779.779	119.7
780.219	109.2
780.658	108.8
781.097	114.9
781.537	118.7
781.976	113.3
782.415	109.2
782.855	103.6
783.294	101.9
783.733	108.8
784.172	112.5
784.611	103
785.05	110.8
785.489	110.2
785.928	117
786.367	123.2
786.806	119.6
787.245	132.3
787.684	134.9
788.123	140.1
788.562	137.5
789.001	129.6
789.44	121.4
789.879	118.7
790.317	117.8
790.756	130.1
791.195	131.8
791.634	146.1
792.072	205.4
792.511	373.7
792.95	1030.4
793.388	2105.1
793.827	1880.7
794.265	665.8
794.704	280
795.142	189.8
795.581	153.6
796.019	131.8
796.458	122.9
796.896	121.8
797.334	130.5
797.773	157.6
798.211	216.1
798.649	441.1
799.087	1016.3
799.526	1576.8
799.964	1989.4
800.402	1947.8
800.84	744.1
801.278	299.7
801.716	185.9
802.154	152
802.592	139.5
803.03	138.1
803.468	134.6
803.906	147.2
804.344	146.8
804.782	136.5
805.22	129.5
805.658	125
806.096	147.4
806.533	156.4
806.971	182.6
807.409	213.8
807.847	326.6
808.284	662.9
808.722	1877.3
809.16	3219.5
809.597	3133.8
810.035	5352.1
810.472	5568.2
810.91	2029.7
811.347	783.1
811.785	396.7
812.222	253.4
812.66	191.1
813.097	164.8
813.535	134.7
813.972	124
814.409	118.8
814.846	109.9
815.284	109.9
815.721	95.5
816.158	107.3
816.595	121.3
817.032	177.3
817.47	189.6
817.907	168.3
818.344	151
818.781	121.9
819.218	98
819.655	124.9
820.092	186
820.529	201.3
820.966	168.1
821.403	125.4
821.839	112.7
822.276	100.7
822.713	114.4
823.15	128.2
823.587	117
824.023	150.4
824.46	305.3
824.897	905.5
825.333	1320.2
825.77	561.5
826.206	225.4
826.643	134.3
827.08	96
827.516	87.4
827.953	77.3
828.389	76.4
828.825	76.3
829.262	67.7
829.698	65.1
830.135	65
830.571	64.5
831.007	63
831.443	65.7
831.88	64.8
832.316	68.9
832.752	65.4
833.188	64.2
833.624	68.6
834.06	62.4
834.497	71.6
834.933	69.6
835.369	72.6
835.805	68.8
836.241	79.8
836.677	78.2
837.112	86.6
837.548	106.6
837.984	139.2
838.42	203.8
838.856	502.4
839.292	1517
839.727	2244.7
840.163	1048.3
840.599	943.8
841.034	2012.9
841.47	2052.3
841.906	754.7
842.341	335.3
842.777	235.3
843.212	319.8
843.648	311.4
844.083	146.8
844.519	92.2
844.954	78.5
845.39	58.5
845.825	55.9
846.261	55.9
846.696	48.9
847.131	52.8
847.566	55.5
848.002	47
848.437	57.5
848.872	58.5
849.307	57.5
849.742	82.7
850.177	185.5
850.613	555.7
851.048	863.8
851.483	368
851.918	152.8
852.353	88.3
852.788	67.9
853.223	56.5
853.657	60.1
854.092	48
854.527	37.5
854.962	39.2
855.397	40.6
855.832	51.7
856.266	40.2
856.701	39.6
857.136	37.3
857.57	41.4
858.005	47.3
858.44	56.4
858.874	48
859.309	52.7
859.743	34.4
860.178	39.2
860.612	44.4
861.047	45.8
861.481	63.1
861.915	67.1
862.35	47.7
862.784	36.3
863.218	42.4
863.653	29.9
864.087	45.7
864.521	57
864.955	75.2
865.39	161
865.824	166
866.258	109.7
866.692	161.1
867.126	169.8
867.56	99.8
867.994	51.3
868.428	38.9
868.862	42.4
869.296	53.6
869.73	58.3
870.164	51.6
870.598	52.5
871.031	39.9
871.465	34.2
871.899	30.5
872.333	24.3
872.766	22.4
873.2	26.6
873.634	23.2
874.067	25.3
874.501	26.1
874.935	31.5
875.368	35.3
875.802	26.6
876.235	26.7
876.669	26.3
877.102	19.2
877.535	26.5
877.969	29.5
878.402	32.5
878.836	19.3
879.269	27.7
879.702	25.5
880.135	20.7
880.569	19.9
881.002	28.1
881.435	25.6
881.868	24.4
882.301	23.9
882.734	14.1
883.167	22.3
883.601	20.2
884.034	24
884.467	12.4
884.899	13.5
885.332	19.6
885.765	16.3
886.198	18.9
886.631	21.1
887.064	21.9
887.497	23.9
887.929	24.7
888.362	13.6
888.795	12
889.228	19.6
889.66	24.8
890.093	21.4
890.526	16.7
890.958	12.2
891.391	24.3
891.823	26.8
892.256	19.6
892.688	12.8
893.121	16.4
893.553	16.8
893.985	21.9
894.418	18.5
894.85	19.5
895.282	17.6
895.715	21.4
896.147	13.5
896.579	22
897.011	11.9
897.444	19.4
897.876	13.5
898.308	20.8
898.74	17.6
899.172	6.2
899.604	26.1
900.036	18.2
900.468	18.6
900.9	13
901.332	15.1
901.764	19.5
902.196	17.2
902.628	19.4
903.06	16.3
903.491	28
903.923	24.8
904.355	22.1
904.787	30.5
905.218	23.6
905.65	28.5
906.082	12.2
906.513	14.8
906.945	20.8
907.376	13.6
907.808	21.1
908.239	23.5
908.671	20.2
909.102	18.7
909.534	20.8
909.965	45.8
910.397	95.3
910.828	309.5
911.259	458.4
911.691	216.2
912.122	106.4
912.553	56.4
912.984	36.4
913.415	25.1
913.847	16.8
914.278	12.9
914.709	14.1
915.14	20.7
915.571	20.4
916.002	11.8
916.433	18.8
916.864	15.1
917.295	16.2
917.726	22.3
918.157	21.8
918.587	30.7
919.018	17.2
919.449	18.8
919.88	22.1
920.311	31.1
920.741	52.4
921.172	164.8
921.603	148.8
922.033	69.1
922.464	44.7
922.895	26.2
923.325	19.3
923.756	12.5
924.186	11
924.617	27
925.047	38.1
925.478	51.2
925.908	44.5
926.338	29.1
926.769	20.3
927.199	21.5
927.629	10.2
928.06	13.4
928.49	11.6
928.92	12.7
929.35	19.2
929.78	14.3
930.21	13.2
930.641	10.9
931.071	11.5
931.501	3.6
931.931	7.2
932.361	11.2
932.791	3.6
933.221	4.3
933.651	5
934.08	18.1
934.51	27.7
934.94	14.1
935.37	9.8
935.8	11.7
936.229	9.9
936.659	7.5
937.089	1.6
937.519	14.9
937.948	29.2
938.378	17.8
938.807	11.6
939.237	3.1
939.666	7.2
940.096	-1.9
940.525	9
940.955	2.4
941.384	4.4
941.814	-2.1
942.243	2.3
942.672	9
943.102	2.4
943.531	2.3
943.96	5.3
944.39	5.8
944.819	8.8
945.248	2.6
945.677	0.5
946.106	3.9
946.535	2.1
946.964	1.4
947.393	5.9
947.822	2.8
948.251	-4.3
948.68	11.4
949.109	6.2
949.538	8.2
949.967	2.3
950.396	3
950.825	-1
951.254	2.1
951.682	-4.2
952.111	3
952.54	7
952.969	-7.7
953.397	-6.1
953.826	-3.2
954.254	0.4
954.683	-0.3
955.112	-4.4
955.54	1.2
955.969	2.9
956.397	-1.1
956.826	-2.2
957.254	2.2
957.682	-1
958.111	4.1
958.539	-1.7
958.967	-2
959.396	-0.1
959.824	5.4
960.252	-0.6
960.68	-3.9
961.109	-3.7
961.537	-3.5
961.965	-0.6
962.393	-0.3
962.821	-3.2
963.249	5.8
963.677	1.4
964.105	6.9
964.533	44.4
964.961	44
965.389	21
965.817	7.2
966.245	3.7
966.672	2.9
967.1	-4.4
967.528	0.1
967.956	-0.6
968.383	4.7
968.811	-3.6
969.239	-4.3
969.666	-8.5
970.094	4.6
970.522	6.6
970.949	3.4
971.377	-4.1
971.804	-1.3
972.232	-2.4
972.659	-2.6
973.087	-2.1
973.514	-1.4
973.941	-8.2
974.369	0.4
974.796	1.2
975.223	2.1
975.651	3.8
976.078	4.4
976.505	1.1
976.932	5.7
977.359	13.1
977.786	15.3
978.214	7.6
978.641	-2.9
979.068	-6.4
979.495	-2
979.922	0.7
980.349	-4.5
980.776	9
981.202	-1
981.629	3.6
982.056	0.6
982.483	-6.4
982.91	0.1
983.337	-2.1
983.763	2.6
984.19	-7.3
984.617	-5
985.043	-6.1
985.47	2
985.897	-1.5
986.323	-8.6
986.75	3.2
987.176	4
987.603	-1.7
988.029	-0.3
988.456	-3.1
988.882	3.7
989.308	-9
989.735	-2.2
990.161	3.5
990.587	-4.4
991.014	0.6
991.44	3.2
991.866	-2.2
992.292	-3.5
992.719	-3.6
993.145	1.7
993.571	-4
993.997	-0
994.423	-2.4
994.849	-3.3
995.275	-2.7
995.701	4.2
996.127	-1.3
996.553	4.3
996.979	1
997.405	0.4
997.83	-5.6
998.256	-8.2
998.682	-4.3
999.108	-11
999.534	-2.2
999.959	-2.2
1000.385	-4
1000.811	3.6
1001.236	-9.1
1001.662	-11.7
1002.087	-9.5
1002.513	0.8
1002.938	1.3
1003.364	0.3
1003.789	1.9
1004.215	3.1
1004.64	-3.3
1005.066	2.2
1005.491	0.5
1005.916	-0.6
1006.342	-1.7
1006.767	-10.2
1007.192	4.1
1007.617	-4.9
1008.042	-0.9
1008.468	-7.6
1008.893	-8.6
1009.318	1.4
1009.743	-2.8
1010.168	3.8
1010.593	-4.5
1011.018	-13.1
1011.443	-3.4
1011.868	7.5
1012.293	-2.1
1012.718	-4.9
1013.143	-0.9
1013.567	3.2
1013.992	-2.5
1014.417	-16.8
1014.842	1.9
1015.267	-6.8
1015.691	-3.2
1016.116	0.8
1016.541	-3.6
1016.965	1.4
1017.39	-0.7
1017.814	2.1
1018.239	-3.5
1018.663	-6.1
1019.088	-13.7
1019.512	-2.8
1019.937	-1.1
1020.361	-6.7
1020.785	-9.1
1021.21	-3.5
1021.634	-4.9
1022.058	-0.1
1022.483	5.6
1022.907	-7.9
1023.331	-2.3
1023.755	-6.3
1024.179	-2
1024.604	-7.9
1025.028	-6.1
1025.452	1.9
1025.876	-2
1026.3	2.7
1026.724	-14.3
1027.148	-6.1
1027.572	-9
1027.996	-3.5
1028.42	0.9
1028.843	-4.9
1029.267	-7.2
1029.691	-6.2
1030.115	-2.1
1030.539	-9.9
1030.962	-6.8
1031.386	-7.4
1031.81	0.1
1032.233	-0.2
1032.657	-1.3
1033.08	-2
1033.504	-0.6
1033.927	-3.9
1034.351	-4.1
1034.774	-3
1035.198	1.1
1035.621	-3.9
1036.045	-6.4
1036.468	-0.6
1036.891	-8.3
1037.315	-7
1037.738	-8.4
1038.161	0.3
1038.584	-0
1039.008	-10.1
1039.431	-8.4
1039.854	-4.4
1040.277	-2.8
1040.7	-13.2
1041.123	1.1
1041.546	-9.7
1041.969	-9.1
1042.392	-8.9
1042.815	-5.7
1043.238	1
1043.661	-3.4
1044.084	-2.7
1044.507	-2.7
1044.93	-3.3
1045.352	-7.4
1045.775	-2.2
1046.198	0.9
1046.621	-5.6
1047.043	4.6
1047.466	8.6
1047.889	-3.2
1048.311	-8.1
1048.734	-8.9
1049.156	-0.5
1049.579	2.3
1050.001	-2.1
1050.424	-3.2
1050.846	-2
1051.269	-5.7
1051.691	-2.2
1052.113	-3.3
1052.536	-3
1052.958	-5.7
1053.38	-1.1
1053.802	-5
1054.225	-0.1
1054.647	-3.3
1055.069	-6.8
1055.491	0.6
1055.913	-9.5
1056.335	6.9
1056.757	-6
1057.179	-8.7
1057.601	-1.4
1058.023	-5.2
1058.445	-6.1
1058.867	-8
1059.289	-3.3
1059.711	-2.3
1060.133	-4.1
1060.555	-3.8
1060.976	-9.5
1061.398	-4.8
1061.82	-6.2
1062.241	-11.5
1062.663	-1.6
1063.085	-8.2
1063.506	-6
1063.928	-6.6
1064.35	-4.2
1064.771	-10.6
1065.193	0.1
1065.614	-13.6
1066.035	-6.4
1066.457	-7.4
1066.878	-0.5
1067.3	-6
1067.721	2.1
1068.142	-1.7
1068.564	-5.4
1068.985	-2.7
1069.406	-7.2
1069.827	-9.4
1070.248	-3.3
1070.67	-3.8
1071.091	-3.7
1071.512	0.4
1071.933	-8.7
1072.354	-7
1072.775	-2
1073.196	-11.7
1073.617	-6.3
1074.038	-6.3
1074.459	-5.2
1074.88	-10.1
1075.3	-2.6
1075.721	-1.6
1076.142	-2.5
1076.563	1.5
1076.983	-11
1077.404	-3
1077.825	-5.7
1078.246	-2.5
1078.666	-12.2
1079.087	-6.7
1079.507	-4.1
1079.928	-4.4
1080.348	-0.3
1080.769	-6.3
1081.189	3.6
1081.61	-8.1
1082.03	-7.3
1082.451	-9.4
1082.871	-5.2
1083.291	-12.2
1083.711	-14.4
1084.132	-5.2
1084.552	-7
1084.972	-5.3
1085.392	-10.8
1085.813	-11.2
1086.233	-7.5
1086.653	-7.8
1087.073	-0.7
1087.493	-10.3
1087.913	-6.9
1088.333	-6.7
1088.753	-0.8
1089.173	4.1
1089.593	-3.4
1090.013	6.1
1090.433	2.2
1090.852	-1.6
1091.272	0.2
1091.692	-4.5
1092.112	0.5
1092.531	-10
1092.951	-14
1093.371	-4.6
1093.79	-1.9
1094.21	-4.3
1094.63	-9.9
1095.049	-4.9
1095.469	-0
1095.888	-5.1
1096.308	-0.7
1096.727	3.8
1097.146	-4.6
1097.566	-4.2
1097.985	-5.8
1098.405	-2.6
1098.824	-9.8
1099.243	-4.8
1099.662	-7.6
1100.082	-6.8
1100.501	0.2
1100.92	-0.7
1101.339	-7.3
1101.758	-0.1
