Data from 20171114-ORNL-Ar_H_NY_Subt18_08-04-38-641.txt Node
Date: Tue Nov 14 08:04:38 EST 2017
User: Ender
Spectrometer: HR+D1039
Trigger mode: 0
Integration Time (sec): 2.730000E-2
Scans to average: 10
Electric dark correction enabled: true
Nonlinearity correction enabled: false
Boxcar width: 0
XAxis mode: Wavelengths
Number of Pixels in Spectrum: 2048
>>>>>Begin Spectral Data<<<<<
187.836	-8.4
188.309	-8.4
188.782	-8.4
189.255	6.6
189.728	-3.1
190.201	6.9
190.674	4.8
191.147	-3.6
191.619	-9.6
192.092	6.3
192.565	5
193.038	2
193.511	-1.3
193.984	0.5
194.456	-0.6
194.929	-0.6
195.402	-0.5
195.874	-4.4
196.347	0.2
196.82	-10.6
197.292	8.1
197.765	-2.1
198.237	-6.5
198.71	3.7
199.182	-5
199.655	7.2
200.127	7.3
200.6	1.7
201.072	-2.6
201.544	-1.6
202.017	-1.6
202.489	2.2
202.961	-3.4
203.433	-5.9
203.906	-2.6
204.378	-3.1
204.85	-0.2
205.322	-3.8
205.794	-5.3
206.266	-2.3
206.739	-5.4
207.211	4
207.683	-10
208.155	-5.1
208.627	-2.9
209.099	-2.1
209.57	-10.8
210.042	-5.4
210.514	0.1
210.986	-2
211.458	-9.9
211.93	-7.2
212.402	1.1
212.873	-4.7
213.345	-5.6
213.817	-13.1
214.288	-8.3
214.76	-5.7
215.232	-5.8
215.703	-4.6
216.175	-4
216.646	-9
217.118	-3.4
217.589	-4.6
218.061	-6.3
218.532	2.2
219.004	-1.4
219.475	-3.5
219.946	0.8
220.418	-7
220.889	2.3
221.36	1.7
221.832	-1.2
222.303	-10.7
222.774	6.1
223.245	-2.3
223.717	-5.9
224.188	-4.3
224.659	-4.3
225.13	-4.7
225.601	-5.2
226.072	1.4
226.543	-1.4
227.014	-4
227.485	-7
227.956	-8.5
228.427	-5.9
228.898	1.9
229.369	6
229.839	-3.3
230.31	-11.2
230.781	2.5
231.252	2.6
231.722	-3.1
232.193	-0.2
232.664	1
233.135	-0.5
233.605	-2.5
234.076	-7.8
234.546	2
235.017	-1.2
235.487	6.9
235.958	-1.7
236.428	1.6
236.899	4.2
237.369	4.6
237.84	3.1
238.31	15
238.78	5.7
239.251	-1.4
239.721	3.7
240.191	1.8
240.662	0
241.132	0.9
241.602	-0.9
242.072	2.8
242.542	8.2
243.013	-0.9
243.483	6.5
243.953	6.4
244.423	-4.4
244.893	-3.5
245.363	4.2
245.833	-0.3
246.303	-1.3
246.773	11.5
247.243	7.5
247.712	3.2
248.182	5.5
248.652	10.3
249.122	1.1
249.592	20.9
250.061	22
250.531	37.7
251.001	18.3
251.471	23.6
251.94	23.3
252.41	3.2
252.879	-0.4
253.349	14.6
253.818	14.9
254.288	5.4
254.757	9.2
255.227	8
255.696	4.3
256.166	8.5
256.635	12
257.105	11.1
257.574	7.8
258.043	6.7
258.513	18.2
258.982	24.4
259.451	7.5
259.92	21.7
260.389	14
260.859	19.9
261.328	13.3
261.797	18.3
262.266	14.4
262.735	9.3
263.204	4.1
263.673	6.1
264.142	8.7
264.611	1.5
265.08	3.3
265.549	2.5
266.018	7.3
266.487	-2.1
266.955	0.7
267.424	6
267.893	12.3
268.362	4.7
268.83	10.8
269.299	11.6
269.768	12.7
270.236	12.2
270.705	2.5
271.174	10.8
271.642	16.1
272.111	9.3
272.579	14.6
273.048	23
273.516	34.1
273.985	32.2
274.453	29.8
274.922	23.6
275.39	16.1
275.858	8.6
276.327	15.4
276.795	17.9
277.263	17.6
277.731	35.5
278.2	53.4
278.668	62.4
279.136	46
279.604	21.1
280.072	18.3
280.54	15.7
281.008	14.7
281.477	19.2
281.945	18.4
282.413	20.2
282.881	26.4
283.348	12.5
283.816	19.5
284.284	18.1
284.752	20.2
285.22	17.8
285.688	23.8
286.156	20.8
286.623	46.1
287.091	58.4
287.559	30.3
288.026	18.6
288.494	20.6
288.962	8.9
289.429	11.7
289.897	18.5
290.364	14
290.832	19.8
291.3	14.4
291.767	17.1
292.234	22.1
292.702	22.3
293.169	25.5
293.637	23.6
294.104	24.2
294.571	14
295.039	7.2
295.506	17.6
295.973	17.6
296.44	19.7
296.908	20.9
297.375	21.4
297.842	20.1
298.309	18.4
298.776	21.4
299.243	24.7
299.71	15.6
300.177	30.6
300.644	26
301.111	18.9
301.578	20.1
302.045	21.9
302.512	25.3
302.979	21.6
303.446	26.8
303.913	24.4
304.379	19.6
304.846	29.4
305.313	25.1
305.78	20.8
306.246	30.3
306.713	26.8
307.18	32.9
307.646	29.2
308.113	30.9
308.579	23.1
309.046	23
309.512	22.1
309.979	21.1
310.445	29.1
310.912	30.1
311.378	36.5
311.845	35.8
312.311	42.1
312.777	34.4
313.244	35.2
313.71	36
314.176	37.7
314.642	37.8
315.109	38.1
315.575	39.4
316.041	40.8
316.507	34.5
316.973	34.1
317.439	31.8
317.905	40.4
318.371	36.2
318.837	36
319.303	32.9
319.769	34.9
320.235	27.6
320.701	41.2
321.167	46.4
321.633	33.4
322.099	41.3
322.564	48.9
323.03	44.1
323.496	44.5
323.962	44
324.427	36.3
324.893	48.1
325.359	43.1
325.824	41.1
326.29	38.5
326.755	39.4
327.221	39.6
327.686	42.3
328.152	48.9
328.617	46.6
329.083	49
329.548	51.6
330.014	53
330.479	39.8
330.944	45.6
331.41	39.4
331.875	45
332.34	39.8
332.805	38.4
333.271	50.7
333.736	41.8
334.201	48.4
334.666	52
335.131	56.2
335.596	49.6
336.061	51.4
336.526	42.4
336.991	49.6
337.456	56.2
337.921	50.6
338.386	46.1
338.851	47.9
339.316	55.6
339.781	48.5
340.246	51.9
340.711	41.7
341.175	53.5
341.64	45.1
342.105	51
342.569	59.9
343.034	57.9
343.499	60.7
343.963	54.8
344.428	55.4
344.893	55.5
345.357	62.8
345.822	59.2
346.286	65.7
346.751	71
347.215	67.2
347.679	66.5
348.144	93.9
348.608	88.6
349.073	68.2
349.537	81.9
350.001	81.6
350.465	91.7
350.93	78
351.394	77
351.858	72.8
352.322	88.3
352.786	85.9
353.25	96
353.715	112.5
354.179	99.7
354.643	119
355.107	120.4
355.571	109.1
356.035	98.2
356.498	116.2
356.962	122.7
357.426	127.5
357.89	112.1
358.354	86.7
358.818	86.4
359.281	82.9
359.745	76.8
360.209	72.7
360.673	71.2
361.136	74.4
361.6	86.4
362.064	85.2
362.527	87.5
362.991	90.7
363.454	78.6
363.918	78.2
364.381	80.5
364.845	80.8
365.308	87.3
365.772	79.6
366.235	82.4
366.698	78.5
367.162	85.5
367.625	84.1
368.088	85.5
368.552	82.2
369.015	87.9
369.478	90.4
369.941	95.6
370.404	93.9
370.867	99.9
371.331	105.2
371.794	116.2
372.257	103.9
372.72	116.2
373.183	109.4
373.646	101.1
374.109	96.6
374.572	102.9
375.035	99.6
375.497	102
375.96	100.7
376.423	96.3
376.886	113
377.349	101.9
377.811	94.7
378.274	105.4
378.737	103
379.199	107.3
379.662	102.2
380.125	114.1
380.587	110.4
381.05	116.4
381.512	126.3
381.975	124.8
382.437	120.7
382.9	121.7
383.362	133.9
383.825	135.7
384.287	146.3
384.75	130.1
385.212	129.9
385.674	135
386.136	129.5
386.599	121.4
387.061	124.4
387.523	127.8
387.985	135.2
388.447	137.9
388.91	138.5
389.372	143.8
389.834	145.1
390.296	134.3
390.758	145.6
391.22	167.1
391.682	198.4
392.144	272.3
392.606	214.6
393.068	158.1
393.529	161.3
393.991	149.4
394.453	137.6
394.915	150.5
395.377	180.7
395.838	198.8
396.3	149.6
396.762	137.3
397.224	125.8
397.685	118.8
398.147	122.3
398.608	125.6
399.07	117
399.531	125.4
399.993	136.1
400.454	150.4
400.916	140.4
401.377	141.5
401.839	144.6
402.3	143.9
402.762	160.1
403.223	167.1
403.684	161.7
404.145	150.4
404.607	153.4
405.068	159.1
405.529	162.9
405.99	176.8
406.451	167.4
406.913	164.5
407.374	149.5
407.835	154.5
408.296	160.9
408.757	166
409.218	170.9
409.679	168
410.14	163.1
410.601	165.1
411.062	166
411.522	187.5
411.983	176.6
412.444	166.5
412.905	172.2
413.366	171.8
413.826	182.9
414.287	203.2
414.748	244.4
415.208	231.1
415.669	200.6
416.13	199
416.59	193.9
417.051	194.9
417.511	203.4
417.972	228.9
418.432	235.9
418.893	267.8
419.353	234.2
419.814	183.5
420.274	172.2
420.734	167
421.195	181.6
421.655	182.5
422.115	177.8
422.576	176
423.036	192.4
423.496	195.4
423.956	205.4
424.416	217.4
424.876	252.2
425.336	241.9
425.797	244.9
426.257	243.1
426.717	221.1
427.177	216.7
427.637	210.1
428.097	221.8
428.556	227.5
429.016	251.2
429.476	240.7
429.936	258.8
430.396	260.3
430.856	274.3
431.315	290.6
431.775	321.2
432.235	355.3
432.694	328.9
433.154	328.7
433.614	363.6
434.073	317.6
434.533	266
434.993	256.8
435.452	275.1
435.912	269
436.371	267.4
436.83	268.1
437.29	246.7
437.749	230
438.209	230.9
438.668	256.4
439.127	263
439.587	244.6
440.046	229.5
440.505	243.1
440.964	256.3
441.424	302.9
441.883	289.6
442.342	241.2
442.801	209.6
443.26	207.1
443.719	205.5
444.178	205.5
444.637	195.2
445.096	207.8
445.555	211.2
446.014	209.5
446.473	209.6
446.932	216.2
447.391	208
447.849	211.9
448.308	203.7
448.767	206.5
449.226	220.2
449.685	228.4
450.143	229.8
450.602	221
451.061	212.4
451.519	223.4
451.978	218.5
452.436	225.9
452.895	232.6
453.353	248.3
453.812	218.6
454.27	223.8
454.729	227.5
455.187	226.3
455.646	229.4
456.104	224.7
456.562	242.4
457.021	246.5
457.479	247.4
457.937	248.7
458.395	246
458.854	233.7
459.312	247.3
459.77	255
460.228	242.8
460.686	232.5
461.144	231.1
461.602	223.3
462.06	227.9
462.518	236.9
462.976	235.4
463.434	233.4
463.892	239
464.35	252.8
464.808	271.8
465.266	253.3
465.724	256
466.181	251.3
466.639	261.8
467.097	278.6
467.555	283.9
468.012	274.9
468.47	292.8
468.928	303.9
469.385	330.3
469.843	326.1
470.3	316.5
470.758	339.9
471.215	359.3
471.673	380.8
472.13	366
472.588	390.2
473.045	353.3
473.503	357.2
473.96	356.7
474.417	381.3
474.875	407.3
475.332	447.6
475.789	426
476.246	428.9
476.704	456.1
477.161	473.4
477.618	492.9
478.075	520.1
478.532	575.9
478.989	639.4
479.446	746
479.903	725.1
480.36	756.9
480.817	810.3
481.274	914
481.731	1008.9
482.188	1097.6
482.645	1227.2
483.102	1316.8
483.558	1458.1
484.015	1502.1
484.472	1474.4
484.929	1439
485.385	1392.7
485.842	1362.4
486.299	1300.3
486.755	1216.6
487.212	1038.4
487.668	866
488.125	793.1
488.582	740.2
489.038	706.5
489.494	670.5
489.951	644.5
490.407	630.5
490.864	610.4
491.32	608.9
491.776	596.4
492.233	604.1
492.689	572.8
493.145	565.2
493.602	569.6
494.058	582.2
494.514	576.1
494.97	600.3
495.426	607.5
495.882	582.6
496.338	583.7
496.794	596.5
497.251	583.1
497.707	595.6
498.163	599.6
498.618	607.5
499.074	613
499.53	638
499.986	626.9
500.442	625.2
500.898	591.4
501.354	587
501.809	608.3
502.265	601.5
502.721	621.6
503.177	615.6
503.632	626.5
504.088	636.3
504.543	670.3
504.999	662.8
505.455	616.7
505.91	594
506.366	581.6
506.821	578.8
507.277	576.7
507.732	580.7
508.187	586.2
508.643	594.7
509.098	602.4
509.553	604.3
510.009	617.8
510.464	622.9
510.919	636.4
511.375	651.7
511.83	660.4
512.285	685.6
512.74	710.5
513.195	739.8
513.65	730.9
514.105	724.9
514.56	725.6
515.015	739.9
515.47	765.8
515.925	742.9
516.38	742.1
516.835	745.5
517.29	736.7
517.745	722.2
518.2	715.4
518.655	701.6
519.109	697.9
519.564	695.6
520.019	685.8
520.474	677.9
520.928	675.8
521.383	673.7
521.838	668.9
522.292	670.2
522.747	664.9
523.201	662.3
523.656	647.6
524.11	640.7
524.565	649.6
525.019	642.9
525.474	653.5
525.928	660.1
526.382	651
526.837	652
527.291	657.5
527.745	653
528.2	644.2
528.654	640.7
529.108	631.2
529.562	637.6
530.016	643.2
530.47	645.9
530.925	648.8
531.379	654.5
531.833	648.2
532.287	649.3
532.741	656.8
533.195	667.2
533.649	672.5
534.103	676.1
534.556	665.8
535.01	668
535.464	657.2
535.918	674.5
536.372	682.3
536.826	674
537.279	658.1
537.733	671.2
538.187	664.7
538.64	674.9
539.094	679.8
539.548	679.6
540.001	673.5
540.455	671.7
540.908	680.4
541.362	677.6
541.815	687.8
542.269	706
542.722	708.3
543.175	714.7
543.629	725.3
544.082	730.2
544.536	729
544.989	728.3
545.442	736.4
545.895	724.5
546.349	731.9
546.802	729.8
547.255	729.9
547.708	737.4
548.161	762.3
548.614	759.7
549.067	771.9
549.52	751.4
549.973	754.7
550.426	745.3
550.879	733
551.332	737.3
551.785	745
552.238	748.7
552.691	751.3
553.144	766.2
553.596	787.5
554.049	803.9
554.502	824.2
554.955	845.6
555.407	841.8
555.86	832.3
556.313	835.8
556.765	816.6
557.218	819.9
557.67	811
558.123	814.8
558.576	807.6
559.028	804.4
559.48	804.6
559.933	798.3
560.385	766.1
560.838	739.7
561.29	720.8
561.742	718.4
562.195	701.5
562.647	693.1
563.099	705.9
563.551	707
564.004	727.1
564.456	710.1
564.908	697.8
565.36	686.3
565.812	664.5
566.264	661.5
566.716	665.8
567.168	657.8
567.62	663.2
568.072	649.4
568.524	632.8
568.976	625.3
569.428	607.7
569.88	608.1
570.332	627.8
570.784	621.9
571.235	624
571.687	638.3
572.139	649.5
572.59	648.5
573.042	649.6
573.494	638.3
573.945	644.1
574.397	622.8
574.849	624.4
575.3	632.2
575.752	625.7
576.203	621.5
576.655	632.5
577.106	611.2
577.557	605.9
578.009	610.9
578.46	600.8
578.912	596
579.363	610.3
579.814	611
580.265	593.8
580.717	605.8
581.168	606.8
581.619	614.9
582.07	616.5
582.521	611.8
582.972	601.8
583.423	612.4
583.875	619.5
584.326	639
584.777	671
585.227	734.1
585.678	817.6
586.129	906.5
586.58	968.3
587.031	1042.8
587.482	1182.5
587.933	1354.7
588.384	1170.9
588.834	869
589.285	732.1
589.736	712.7
590.186	693
590.637	691.4
591.088	668.1
591.538	670.2
591.989	660
592.439	655.7
592.89	645.6
593.34	643.9
593.791	643.8
594.241	635
594.692	630.9
595.142	629.1
595.593	628.6
596.043	635.1
596.493	643.1
596.943	644.3
597.394	654
597.844	649.2
598.294	650.5
598.744	669.9
599.195	688
599.645	727
600.095	761.2
600.545	815.2
600.995	870.1
601.445	920.4
601.895	976.9
602.345	1017.2
602.795	1001.7
603.245	965.8
603.695	913.1
604.145	854.6
604.594	810.6
605.044	758.7
605.494	719.3
605.944	678
606.393	669.7
606.843	649.3
607.293	646.7
607.743	647.8
608.192	656.3
608.642	671.4
609.091	671.7
609.541	692.5
609.99	688.7
610.44	687.2
610.889	637.2
611.339	622.2
611.788	617
612.238	624.1
612.687	639.9
613.136	633.5
613.586	656.5
614.035	649.2
614.484	667.4
614.933	675.6
615.383	660.6
615.832	653.5
616.281	644.2
616.73	613
617.179	588.2
617.628	582.8
618.077	567.2
618.526	549.8
618.975	548.7
619.424	544.1
619.873	541.1
620.322	542.1
620.771	538.4
621.22	529.8
621.669	522.5
622.118	515.3
622.567	513.7
623.015	496.3
623.464	496.5
623.913	497.7
624.361	492
624.81	481.7
625.259	493.2
625.707	495.2
626.156	488.4
626.604	501.6
627.053	482
627.501	495
627.95	492.4
628.398	513.4
628.847	508.9
629.295	489.7
629.744	502.2
630.192	500.2
630.64	500.4
631.089	498.1
631.537	496.9
631.985	508.9
632.433	516.4
632.881	523.4
633.33	576
633.778	552
634.226	490.8
634.674	502.8
635.122	505.7
635.57	524.1
636.018	540.6
636.466	503.5
636.914	487.9
637.362	506.5
637.81	501.2
638.258	501.8
638.705	505.9
639.153	534.8
639.601	529.2
640.049	560
640.497	595.8
640.944	601.3
641.392	562.2
641.84	533.8
642.287	510.6
642.735	493
643.182	492.4
643.63	498.2
644.078	492.9
644.525	511.7
644.973	521.9
645.42	526.7
645.867	543.5
646.315	554.9
646.762	569
647.21	595.4
647.657	615.1
648.104	652.1
648.551	667
648.999	721.2
649.446	780.2
649.893	865.9
650.34	994.2
650.787	1181.5
651.234	1476.5
651.682	1938
652.129	2612
652.576	3758.2
653.023	5572.8
653.47	7684.2
653.917	9684.4
654.363	11383
654.81	12743.2
655.257	12096.3
655.704	7846.3
656.151	4623.5
656.598	2999.8
657.044	2124.1
657.491	1626.5
657.938	1307.1
658.385	1079.9
658.831	949.7
659.278	830.6
659.724	738.3
660.171	684.8
660.618	636.9
661.064	596.2
661.511	569.5
661.957	563.8
662.404	556.3
662.85	556.2
663.296	536.3
663.743	486.5
664.189	471.2
664.635	464.4
665.082	449.6
665.528	458
665.974	441.3
666.42	442.2
666.867	441.8
667.313	422.5
667.759	417.7
668.205	418
668.651	418.2
669.097	412.9
669.543	439.5
669.989	403.8
670.435	383.4
670.881	387
671.327	378.4
671.773	409
672.219	425.4
672.665	462.2
673.11	507.6
673.556	528.6
674.002	588
674.448	566
674.893	471.7
675.339	414
675.785	377.3
676.23	361.1
676.676	336.1
677.122	324.1
677.567	318.3
678.013	309
678.458	300.6
678.904	309
679.349	289.7
679.794	301
680.24	297.5
680.685	299.5
681.131	292.9
681.576	295.6
682.021	310.9
682.466	296.9
682.912	298.4
683.357	297.2
683.802	318.1
684.247	344.7
684.692	386.4
685.137	417.4
685.583	463.5
686.028	481.8
686.473	446.5
686.918	382.1
687.363	357.5
687.807	339.3
688.252	312.2
688.697	300
689.142	290.2
689.587	283.3
690.032	275.9
690.477	292.9
690.921	292.6
691.366	327.4
691.811	338.1
692.255	363
692.7	402
693.145	430.5
693.589	567.3
694.034	935.8
694.478	1309.1
694.923	1512.3
695.367	1989.2
695.812	1031.9
696.256	434.7
696.701	312.9
697.145	294.8
697.59	282.7
698.034	271.6
698.478	282.1
698.922	274.6
699.367	271.9
699.811	291.9
700.255	306.4
700.699	333.1
701.143	358.6
701.588	408.4
702.032	440.1
702.476	436.7
702.92	411.5
703.364	416.4
703.808	529.1
704.252	852.4
704.696	1222
705.14	1439.9
705.584	1855.2
706.027	912.5
706.471	449.9
706.915	331.7
707.359	299.9
707.803	272.1
708.246	272.4
708.69	263.9
709.134	270.5
709.577	265.2
710.021	265
710.465	263.7
710.908	251.8
711.352	251.3
711.795	267
712.239	297.1
712.682	322.5
713.126	350.4
713.569	392.2
714.012	319.2
714.456	275.8
714.899	256.2
715.342	231.6
715.786	218.3
716.229	213.4
716.672	216.7
717.115	213
717.558	217
718.002	211.3
718.445	222.3
718.888	238.6
719.331	249.2
719.774	255.3
720.217	267
720.66	241.4
721.103	224.4
721.546	207.4
721.989	209.3
722.432	195.1
722.874	200
723.317	189.4
723.76	206
724.203	217
724.645	264.5
725.088	377.7
725.531	478.7
725.974	562.6
726.416	469.4
726.859	259.4
727.301	203.6
727.744	197.2
728.187	193.7
728.629	203.9
729.071	205.7
729.514	213.6
729.956	229.3
730.399	238.6
730.841	244.4
731.283	233.6
731.726	221.5
732.168	218
732.61	225.9
733.053	238.7
733.495	255.9
733.937	291.1
734.379	329.6
734.821	370.9
735.263	459
735.705	690.7
736.148	1297.9
736.59	2171.6
737.032	2640.4
737.474	2156.6
737.916	694.3
738.357	357.3
738.799	272
739.241	255.5
739.683	240.2
740.125	236.6
740.567	253
741.008	265.1
741.45	263.8
741.892	265.8
742.334	295.9
742.775	307.7
743.217	287.9
743.658	236
744.1	211.3
744.542	217.5
744.983	257
745.425	290.7
745.866	288.5
746.307	242.9
746.749	238.8
747.19	274.6
747.632	372.7
748.073	708.3
748.514	1523.8
748.956	2418.4
749.397	3035.3
749.838	2515.3
750.279	2579.3
750.72	1295.9
751.162	462.1
751.603	270.5
752.044	212.4
752.485	177.5
752.926	173
753.367	165.1
753.808	168
754.249	158
754.69	148.7
755.131	147.3
755.572	155
756.013	146.2
756.453	154.6
756.894	162.7
757.335	160.9
757.776	164.2
758.216	164
758.657	173.4
759.098	170.2
759.538	188.3
759.979	225.1
760.42	310.5
760.86	572.6
761.301	1471.6
761.741	3693.8
762.182	5660.1
762.622	3957.6
763.063	1130.5
763.503	460.8
763.943	288.1
764.384	285.7
764.824	341.5
765.264	378.5
765.705	251.4
766.145	175.3
766.585	154
767.025	150.6
767.465	152
767.906	199.9
768.346	274.7
768.786	289.8
769.226	215.6
769.666	261.3
770.106	504.4
770.546	1272.2
770.986	2259.5
771.426	2074.1
771.866	676.8
772.306	277.8
772.745	175.7
773.185	148.4
773.625	138.7
774.065	139.3
774.505	164.4
774.944	246.9
775.384	536
775.824	1034.1
776.263	1032.9
776.703	420.8
777.142	179.3
777.582	132.9
778.021	114.5
778.461	111.2
778.9	115.5
779.34	112.6
779.779	97.5
780.219	85
780.658	94.3
781.097	91.6
781.537	97.1
781.976	96.9
782.415	88.3
782.855	91.4
783.294	91.1
783.733	86.7
784.172	96.1
784.611	87.8
785.05	93.1
785.489	98.3
785.928	105.9
786.367	106.8
786.806	98.5
787.245	112
787.684	116.6
788.123	122.5
788.562	114.4
789.001	110.6
789.44	107.5
789.879	101.5
790.317	92
790.756	101.7
791.195	109.8
791.634	122.4
792.072	168
792.511	292.6
792.95	822.5
793.388	1829.5
793.827	1696.3
794.265	579.6
794.704	236.7
795.142	151.3
795.581	129.4
796.019	114.1
796.458	106.6
796.896	103.9
797.334	111.5
797.773	130.2
798.211	187
798.649	353.9
799.087	851.5
799.526	1339.8
799.964	1709.5
800.402	1765
800.84	644.8
801.278	251
801.716	164.2
802.154	133.6
802.592	127.6
803.03	120.8
803.468	106.7
803.906	123.8
804.344	129.1
804.782	122
805.22	109.7
805.658	106.1
806.096	126.6
806.533	134.8
806.971	151.7
807.409	182.6
807.847	252.7
808.284	534.6
808.722	1539.6
809.16	2837.3
809.597	2609.5
810.035	4645.2
810.472	5123
810.91	1802.6
811.347	673.8
811.785	341.3
812.222	218
812.66	162.3
813.097	138.8
813.535	120
813.972	109.1
814.409	100
814.846	94.7
815.284	87.1
815.721	85.9
816.158	87.7
816.595	100.4
817.032	150.8
817.47	172.5
817.907	148.7
818.344	128
818.781	106.5
819.218	85.4
819.655	110.1
820.092	161.8
820.529	188.3
820.966	153.7
821.403	112.4
821.839	91.6
822.276	85
822.713	106.8
823.15	118.5
823.587	95.7
824.023	116.8
824.46	238.3
824.897	745.4
825.333	1185.1
825.77	497.4
826.206	197.3
826.643	110.5
827.08	84
827.516	67.3
827.953	67.3
828.389	71.2
828.825	50.9
829.262	55.4
829.698	52.6
830.135	53
830.571	50.8
831.007	53.6
831.443	54.6
831.88	53.4
832.316	45.8
832.752	53.5
833.188	57.8
833.624	48.9
834.06	56.8
834.497	65.8
834.933	59.7
835.369	63.6
835.805	54.2
836.241	67.2
836.677	67.5
837.112	71.4
837.548	82.3
837.984	109.5
838.42	160.8
838.856	405.9
839.292	1276.9
839.727	2010.2
840.163	932.1
840.599	759.3
841.034	1719.6
841.47	1878.9
841.906	671.2
842.341	278.9
842.777	200.2
843.212	270.7
843.648	261.7
844.083	127.1
844.519	80.9
844.954	62.5
845.39	53.2
845.825	48.5
846.261	47.7
846.696	52.2
847.131	39.7
847.566	52.1
848.002	41.1
848.437	46.6
848.872	55.3
849.307	50.4
849.742	69.1
850.177	143.9
850.613	470.4
851.048	756
851.483	334.7
851.918	128.6
852.353	71
852.788	49.8
853.223	48.4
853.657	48.2
854.092	44.7
854.527	35.9
854.962	35.8
855.397	33.7
855.832	41.8
856.266	34.2
856.701	33.9
857.136	32.7
857.57	35.9
858.005	41.3
858.44	46.5
858.874	38.1
859.309	41.6
859.743	34.1
860.178	37.6
860.612	41.4
861.047	45.3
861.481	55.4
861.915	64.1
862.35	41.3
862.784	26.3
863.218	31.1
863.653	28.1
864.087	40.1
864.521	40.3
864.955	56.7
865.39	134
865.824	153.7
866.258	100
866.692	143.1
867.126	158
867.56	87.8
867.994	43.1
868.428	30.8
868.862	40.8
869.296	52.4
869.73	53.7
870.164	41.5
870.598	41.8
871.031	32.2
871.465	28.5
871.899	30.1
872.333	17.7
872.766	29
873.2	14.3
873.634	25
874.067	21.3
874.501	20.3
874.935	27.8
875.368	27.9
875.802	24.1
876.235	15
876.669	19.8
877.102	14.3
877.535	23.2
877.969	19
878.402	19.7
878.836	15.9
879.269	20.6
879.702	17.5
880.135	17.8
880.569	19.9
881.002	26.3
881.435	19.6
881.868	9.6
882.301	23.2
882.734	15.2
883.167	19.4
883.601	22.1
884.034	22.3
884.467	10.7
884.899	17.9
885.332	16.6
885.765	10
886.198	11.6
886.631	13.5
887.064	17.5
887.497	16.7
887.929	18.4
888.362	12.3
888.795	14.6
889.228	14.5
889.66	19.6
890.093	9
890.526	17.5
890.958	19.1
891.391	11.5
891.823	14.8
892.256	12.9
892.688	7.7
893.121	16
893.553	3.1
893.985	22
894.418	24.8
894.85	11.4
895.282	10.5
895.715	11.1
896.147	19.1
896.579	17.5
897.011	15.2
897.444	16.2
897.876	11.3
898.308	13.6
898.74	13.5
899.172	9.1
899.604	22
900.036	18.1
900.468	10.8
900.9	11.6
901.332	15.4
901.764	13.7
902.196	13.4
902.628	10.7
903.06	16.3
903.491	30.7
903.923	20.2
904.355	21
904.787	20.8
905.218	17.3
905.65	16.4
906.082	9
906.513	5.6
906.945	11.8
907.376	7.8
907.808	17.4
908.239	17.4
908.671	16.6
909.102	19.9
909.534	22
909.965	42
910.397	79.6
910.828	269.3
911.259	416.4
911.691	191.7
912.122	92.5
912.553	44.8
912.984	29.9
913.415	20.3
913.847	23.2
914.278	17.8
914.709	8.6
915.14	19.1
915.571	17.3
916.002	11
916.433	18.1
916.864	15.8
917.295	13.8
917.726	14.4
918.157	12.2
918.587	22.7
919.018	25
919.449	22.6
919.88	18.9
920.311	25
920.741	37.6
921.172	137.2
921.603	133.2
922.033	63.6
922.464	38.8
922.895	21.2
923.325	15.7
923.756	21.6
924.186	19.3
924.617	24.9
925.047	35.6
925.478	46.9
925.908	34.5
926.338	16.6
926.769	11.2
927.199	18.2
927.629	3.1
928.06	18
928.49	9.4
928.92	13.6
929.35	3.5
929.78	8.5
930.21	6.8
930.641	6.7
931.071	4.3
931.501	1.9
931.931	2.6
932.361	12.6
932.791	1.6
933.221	3.7
933.651	4.7
934.08	11.3
934.51	26.9
934.94	10.9
935.37	8.4
935.8	13.6
936.229	8.4
936.659	7.6
937.089	5.4
937.519	12.6
937.948	19.2
938.378	13.8
938.807	2.6
939.237	3
939.666	8.4
940.096	-4.8
940.525	-1.5
940.955	8.7
941.384	1.7
941.814	-10.3
942.243	0.4
942.672	4.9
943.102	0.9
943.531	1.4
943.96	3.3
944.39	2.3
944.819	2.3
945.248	9.6
945.677	2.1
946.106	3.2
946.535	6.3
946.964	-3.4
947.393	4.8
947.822	6
948.251	-6.8
948.68	3.2
949.109	12.5
949.538	4
949.967	-5.5
950.396	-3
950.825	-4.2
951.254	5.7
951.682	-0.4
952.111	3.5
952.54	6.2
952.969	-1.7
953.397	-4.7
953.826	2.8
954.254	-6.8
954.683	4
955.112	2.5
955.54	6.3
955.969	3.4
956.397	1.9
956.826	-0.2
957.254	3.8
957.682	4.9
958.111	9.6
958.539	-0.3
958.967	4.3
959.396	0.9
959.824	6.4
960.252	3.4
960.68	-7.2
961.109	-1.5
961.537	-7.2
961.965	4.2
962.393	-1.6
962.821	-4.5
963.249	-1.9
963.677	-4.1
964.105	6.4
964.533	41.8
964.961	34.9
965.389	22.8
965.817	11.5
966.245	-3.4
966.672	1.2
967.1	-4.5
967.528	-4.4
967.956	-1.9
968.383	1.3
968.811	-2.1
969.239	-2.9
969.666	-9.1
970.094	-3
970.522	-0.2
970.949	-5.1
971.377	-3.9
971.804	-0.7
972.232	-7.5
972.659	1.2
973.087	-4.1
973.514	-1.4
973.941	-5.3
974.369	9.8
974.796	-1.1
975.223	4.9
975.651	-4.2
976.078	2.1
976.505	-3
976.932	1.3
977.359	17.9
977.786	13
978.214	1.9
978.641	3.1
979.068	2.2
979.495	-7
979.922	1.1
980.349	-2.9
980.776	1.5
981.202	-1.5
981.629	7.9
982.056	6.9
982.483	4
982.91	1.7
983.337	-5.4
983.763	-0
984.19	-2.1
984.617	2.8
985.043	0.1
985.47	2.9
985.897	1.7
986.323	-7.1
986.75	3.6
987.176	1
987.603	0.6
988.029	-0.9
988.456	7
988.882	1.1
989.308	-6.2
989.735	-4.4
990.161	3.2
990.587	-3.2
991.014	-1
991.44	7.9
991.866	-6.1
992.292	-1.5
992.719	-6.3
993.145	5.1
993.571	-9
993.997	-1.6
994.423	-4.9
994.849	-1.1
995.275	6.3
995.701	5.2
996.127	-3.3
996.553	7
996.979	-2.4
997.405	-2.7
997.83	-1
998.256	-9.5
998.682	-0.4
999.108	-5.2
999.534	0.6
999.959	0
1000.385	0.4
1000.811	1.4
1001.236	-7.7
1001.662	-4.9
1002.087	-5.9
1002.513	4
1002.938	0.1
1003.364	3.7
1003.789	3.9
1004.215	5.7
1004.64	2.3
1005.066	3.7
1005.491	0.9
1005.916	-0.5
1006.342	2.7
1006.767	-10.1
1007.192	3.5
1007.617	-7.1
1008.042	-6.2
1008.468	-7.4
1008.893	-6.7
1009.318	-4
1009.743	-7
1010.168	3.4
1010.593	5.8
1011.018	-8.2
1011.443	-2.5
1011.868	3.9
1012.293	-3.8
1012.718	-3.6
1013.143	-1.5
1013.567	5.4
1013.992	-3.3
1014.417	-11.9
1014.842	5.3
1015.267	-7.3
1015.691	1.8
1016.116	2.8
1016.541	2.8
1016.965	3
1017.39	3.2
1017.814	2.9
1018.239	-7.2
1018.663	-6.4
1019.088	-9.4
1019.512	3.1
1019.937	0.8
1020.361	-2.5
1020.785	-8.5
1021.21	-0.2
1021.634	-6.4
1022.058	3.6
1022.483	5.1
1022.907	-4.2
1023.331	-2
1023.755	-1.1
1024.179	-2.5
1024.604	-7
1025.028	-3.2
1025.452	-1.4
1025.876	-5.6
1026.3	-1.3
1026.724	-10.1
1027.148	-8.2
1027.572	-3.5
1027.996	-4.4
1028.42	-3.4
1028.843	-7.6
1029.267	0.1
1029.691	-0.7
1030.115	-7.6
1030.539	-2
1030.962	-9.2
1031.386	-5.1
1031.81	-2.5
1032.233	0.9
1032.657	-2.2
1033.08	0.2
1033.504	-4.1
1033.927	-3.3
1034.351	-0.7
1034.774	-11.6
1035.198	1.9
1035.621	0.3
1036.045	-9
1036.468	-0.7
1036.891	-8.8
1037.315	-11.7
1037.738	-10.9
1038.161	0.9
1038.584	1.4
1039.008	-7.2
1039.431	-2.8
1039.854	0.9
1040.277	-6.8
1040.7	-10.9
1041.123	3.6
1041.546	-10.2
1041.969	-6.5
1042.392	-4
1042.815	0.4
1043.238	0.5
1043.661	0
1044.084	-12.3
1044.507	-4.4
1044.93	-6
1045.352	0.2
1045.775	-1
1046.198	-1.4
1046.621	-2.8
1047.043	2.3
1047.466	9.3
1047.889	-1.1
1048.311	-3.2
1048.734	-4.8
1049.156	-1.9
1049.579	-1.8
1050.001	0.7
1050.424	0.9
1050.846	-2.9
1051.269	-0.5
1051.691	0.3
1052.113	-7.3
1052.536	0.3
1052.958	1.8
1053.38	-6.3
1053.802	-7.7
1054.225	0.2
1054.647	-11.6
1055.069	3.9
1055.491	-0.2
1055.913	-5.4
1056.335	1.6
1056.757	-4.9
1057.179	-5.3
1057.601	-5.2
1058.023	-2.1
1058.445	-2.9
1058.867	-4.2
1059.289	-5.3
1059.711	-0.5
1060.133	1.6
1060.555	-2.1
1060.976	-6.2
1061.398	-7.1
1061.82	-4.2
1062.241	-3
1062.663	-7.7
1063.085	-7.3
1063.506	0
1063.928	-7.3
1064.35	-3
1064.771	-11.6
1065.193	-2.4
1065.614	-6.6
1066.035	1.9
1066.457	-1.5
1066.878	2
1067.3	-0.3
1067.721	-1.1
1068.142	-6.7
1068.564	-5.3
1068.985	-2.2
1069.406	-4
1069.827	-4.6
1070.248	0
1070.67	-5.9
1071.091	-6.6
1071.512	-0.8
1071.933	-1.1
1072.354	-0.6
1072.775	-3.3
1073.196	-7.9
1073.617	-8.7
1074.038	-8.5
1074.459	2.3
1074.88	-8.7
1075.3	1
1075.721	-10.8
1076.142	3.7
1076.563	-1.4
1076.983	-7.3
1077.404	-6.3
1077.825	-7.6
1078.246	-3.4
1078.666	-8.9
1079.087	-0.3
1079.507	-5.6
1079.928	-2.4
1080.348	1.7
1080.769	-8.3
1081.189	2.7
1081.61	-2.6
1082.03	-0.1
1082.451	-6.2
1082.871	-3.3
1083.291	-6.6
1083.711	-4.2
1084.132	-4.8
1084.552	-7.6
1084.972	0.4
1085.392	-13.9
1085.813	-9.7
1086.233	-12.9
1086.653	-3.2
1087.073	-2.2
1087.493	-5.2
1087.913	-6.3
1088.333	-7.5
1088.753	0.7
1089.173	4.1
1089.593	-4.6
1090.013	0.1
1090.433	-1.5
1090.852	1.7
1091.272	-0.9
1091.692	0.4
1092.112	-1.6
1092.531	-6.7
1092.951	-14
1093.371	-1.8
1093.79	-5.9
1094.21	-1.5
1094.63	-5.1
1095.049	-1.6
1095.469	-2.8
1095.888	-2.4
1096.308	-5.8
1096.727	5.3
1097.146	-4.3
1097.566	-6.8
1097.985	-7
1098.405	0.8
1098.824	-3.4
1099.243	-5.2
1099.662	-3.7
1100.082	-5.2
1100.501	6.1
1100.92	-0.3
1101.339	-8.3
1101.758	-1.1
