Data from 20171114-ORNL-Ar_H_NY_Subt18_08-09-07-854.txt Node
Date: Tue Nov 14 08:09:07 EST 2017
User: Ender
Spectrometer: HR+D1039
Trigger mode: 0
Integration Time (sec): 2.730000E-2
Scans to average: 10
Electric dark correction enabled: true
Nonlinearity correction enabled: false
Boxcar width: 0
XAxis mode: Wavelengths
Number of Pixels in Spectrum: 2048
>>>>>Begin Spectral Data<<<<<
187.836	-6
188.309	-6
188.782	-6
189.255	1.7
189.728	-1.7
190.201	2.6
190.674	-1.5
191.147	4.4
191.619	-5.5
192.092	1.1
192.565	3.2
193.038	1
193.511	1
193.984	-2.7
194.456	1.3
194.929	-0.2
195.402	-0.4
195.874	1.7
196.347	-0.1
196.82	-9.4
197.292	6.5
197.765	-1.9
198.237	-6.3
198.71	1.8
199.182	-3.9
199.655	-0
200.127	3.7
200.6	-0.7
201.072	2.4
201.544	-4.4
202.017	3.6
202.489	4.2
202.961	-1.2
203.433	-4
203.906	-1.7
204.378	-4.8
204.85	-6.9
205.322	-7.7
205.794	-4
206.266	-4.8
206.739	-11.8
207.211	-0.3
207.683	-11.8
208.155	-12
208.627	-8.3
209.099	-1
209.57	-2.3
210.042	-7.1
210.514	-8.4
210.986	-5.3
211.458	-12.2
211.93	-3.6
212.402	3.9
212.873	-6.9
213.345	-13.5
213.817	-10.8
214.288	-8.8
214.76	-14.4
215.232	-4.4
215.703	-4.3
216.175	0.1
216.646	-7.2
217.118	-7.2
217.589	-9.3
218.061	-8.5
218.532	-10
219.004	2.5
219.475	-1.3
219.946	-3.3
220.418	-7
220.889	5.5
221.36	-3.8
221.832	-0.7
222.303	-6.5
222.774	1.1
223.245	-8.3
223.717	-7.8
224.188	-9.4
224.659	-6.5
225.13	-7.5
225.601	-2.2
226.072	2.2
226.543	1.6
227.014	2.8
227.485	1.7
227.956	-7.2
228.427	-2
228.898	-1.6
229.369	-0.8
229.839	-6.6
230.31	-9.9
230.781	-3.7
231.252	-6
231.722	-1.6
232.193	-6.5
232.664	-1.4
233.135	-2.2
233.605	-1.2
234.076	-11.6
234.546	-4.1
235.017	2.9
235.487	-0.7
235.958	-6
236.428	-4.6
236.899	-1.6
237.369	1.3
237.84	-7.5
238.31	-3.5
238.78	-2.8
239.251	-8.4
239.721	-4
240.191	1
240.662	-5.3
241.132	-3.5
241.602	-7.7
242.072	-3.7
242.542	2.1
243.013	-3.5
243.483	-0.2
243.953	1
244.423	-0.9
244.893	-9.1
245.363	-3.3
245.833	-0.9
246.303	-6.3
246.773	7.4
247.243	-5.3
247.712	3
248.182	2.1
248.652	1.3
249.122	-12.5
249.592	-0.7
250.061	3.5
250.531	9.1
251.001	3.5
251.471	4.1
251.94	4.2
252.41	-10.4
252.879	-12.1
253.349	4.4
253.818	4.3
254.288	-0.5
254.757	3.4
255.227	-6.6
255.696	-0.9
256.166	0.5
256.635	-0.8
257.105	0.9
257.574	-0.9
258.043	3.3
258.513	-5.2
258.982	-1.4
259.451	-5.5
259.92	2
260.389	0.5
260.859	7.9
261.328	1.8
261.797	0.4
262.266	-0.1
262.735	10
263.204	-1.3
263.673	-3
264.142	1
264.611	-6.9
265.08	-4.1
265.549	-2.8
266.018	-1.8
266.487	-2.9
266.955	-5.9
267.424	-5.8
267.893	2.3
268.362	-3.3
268.83	-2.8
269.299	3.9
269.768	-5.9
270.236	-0.5
270.705	-6.5
271.174	-2.5
271.642	6.5
272.111	-1.1
272.579	-0.2
273.048	-5.2
273.516	2
273.985	2.9
274.453	7.3
274.922	10.5
275.39	2.1
275.858	-6.9
276.327	2.5
276.795	9.8
277.263	3.5
277.731	11.5
278.2	13.8
278.668	8.3
279.136	13.2
279.604	-0
280.072	3
280.54	6.9
281.008	1.7
281.477	6.4
281.945	2.4
282.413	10
282.881	10.7
283.348	0.2
283.816	11.7
284.284	0.5
284.752	16.6
285.22	9.3
285.688	3
286.156	5
286.623	19.7
287.091	5
287.559	11.7
288.026	4.3
288.494	9.3
288.962	-3.8
289.429	-3.3
289.897	12
290.364	6.8
290.832	11.9
291.3	14.3
291.767	9.1
292.234	12.2
292.702	10.9
293.169	10.7
293.637	11.5
294.104	6.8
294.571	-1.7
295.039	1.9
295.506	8.4
295.973	11.9
296.44	8.5
296.908	7
297.375	9.6
297.842	10.6
298.309	10.4
298.776	5.4
299.243	11.7
299.71	6.7
300.177	8.3
300.644	15.9
301.111	9.6
301.578	18.1
302.045	5.3
302.512	13.2
302.979	8.3
303.446	11
303.913	8.4
304.379	6.2
304.846	17.8
305.313	18
305.78	19.5
306.246	21.4
306.713	19.8
307.18	13.6
307.646	17.5
308.113	14.4
308.579	16.3
309.046	14.7
309.512	11.9
309.979	10.2
310.445	17
310.912	19.3
311.378	30.7
311.845	21.9
312.311	24.5
312.777	18.9
313.244	22.2
313.71	29.2
314.176	15.7
314.642	13.5
315.109	14.3
315.575	26.6
316.041	21.2
316.507	20.5
316.973	24.3
317.439	21.8
317.905	21
318.371	23.2
318.837	21.2
319.303	29.1
319.769	20.7
320.235	22.3
320.701	24.7
321.167	27
321.633	19.4
322.099	20.5
322.564	26.6
323.03	26.4
323.496	30
323.962	25.7
324.427	24.8
324.893	29.5
325.359	24.1
325.824	24.3
326.29	26.3
326.755	29.8
327.221	31.3
327.686	25.3
328.152	37.5
328.617	29.8
329.083	33
329.548	34.6
330.014	31.9
330.479	30.8
330.944	34.8
331.41	32.6
331.875	36.7
332.34	34.8
332.805	34.7
333.271	31.5
333.736	28.2
334.201	34.9
334.666	34.5
335.131	39.5
335.596	42.6
336.061	41.7
336.526	31.3
336.991	32.1
337.456	47.2
337.921	36.6
338.386	34.4
338.851	27.4
339.316	39
339.781	36.9
340.246	39.6
340.711	40.3
341.175	35.9
341.64	31.2
342.105	34.9
342.569	45.4
343.034	41.7
343.499	44.7
343.963	37.4
344.428	51.3
344.893	51.1
345.357	45
345.822	52.2
346.286	51.7
346.751	53.8
347.215	51.3
347.679	56.6
348.144	67.8
348.608	64.6
349.073	55.8
349.537	59.7
350.001	67.7
350.465	63.2
350.93	54.7
351.394	58.1
351.858	53.7
352.322	66.7
352.786	64.2
353.25	77.9
353.715	84.3
354.179	73.6
354.643	90.8
355.107	94
355.571	83.5
356.035	77
356.498	89.9
356.962	89.5
357.426	99.5
357.89	91.9
358.354	74.6
358.818	68.6
359.281	61.3
359.745	59.6
360.209	59.1
360.673	59.6
361.136	62.6
361.6	71.8
362.064	67.1
362.527	62.2
362.991	78.1
363.454	70.5
363.918	62.5
364.381	62.9
364.845	63
365.308	77.6
365.772	68.6
366.235	70.1
366.698	71.2
367.162	71.9
367.625	72.3
368.088	74.9
368.552	81.3
369.015	69.9
369.478	79
369.941	80.4
370.404	70.1
370.867	80.5
371.331	83.2
371.794	87.2
372.257	82.9
372.72	92.4
373.183	84.1
373.646	80.5
374.109	88.6
374.572	84.4
375.035	89.2
375.497	84.2
375.96	91
376.423	81.6
376.886	83.5
377.349	97.1
377.811	92.4
378.274	92.8
378.737	88.3
379.199	87.1
379.662	95.3
380.125	93
380.587	93.9
381.05	94.2
381.512	96.2
381.975	113.4
382.437	105.6
382.9	101.3
383.362	101
383.825	111.8
384.287	103.7
384.75	104.3
385.212	107.5
385.674	119.1
386.136	111.3
386.599	104.8
387.061	111.5
387.523	114.3
387.985	114.6
388.447	116.5
388.91	115.5
389.372	116.9
389.834	119.5
390.296	115.8
390.758	118.9
391.22	122.3
391.682	134.9
392.144	143.8
392.606	129.9
393.068	134.3
393.529	130.3
393.991	124.9
394.453	113.7
394.915	127.3
395.377	120.7
395.838	132.4
396.3	125.3
396.762	129.4
397.224	119.6
397.685	118
398.147	123
398.608	115.2
399.07	124.1
399.531	126.1
399.993	131.5
400.454	139.1
400.916	140.6
401.377	134.7
401.839	143.6
402.3	138.5
402.762	154.9
403.223	159.8
403.684	154.8
404.145	150.9
404.607	144.9
405.068	152.1
405.529	153.9
405.99	170
406.451	158.8
406.913	152.4
407.374	150.5
407.835	152.8
408.296	154.5
408.757	157
409.218	168.1
409.679	162.6
410.14	163.4
410.601	164.3
411.062	169
411.522	174.8
411.983	169.3
412.444	157.8
412.905	171.6
413.366	171.4
413.826	183.7
414.287	207.5
414.748	246.8
415.208	233.2
415.669	201.7
416.13	198.4
416.59	195.9
417.051	205.6
417.511	206.9
417.972	230.2
418.432	237.4
418.893	274.7
419.353	237.2
419.814	191.5
420.274	177.4
420.734	175
421.195	185.8
421.655	178.2
422.115	181.8
422.576	186.2
423.036	191
423.496	200
423.956	209.2
424.416	222
424.876	249
425.336	255.2
425.797	242
426.257	248.8
426.717	238.4
427.177	228
427.637	206.3
428.097	214.7
428.556	224.2
429.016	253.9
429.476	245.1
429.936	256.7
430.396	253.7
430.856	274.8
431.315	292.9
431.775	324.6
432.235	348
432.694	325.9
433.154	339.8
433.614	359
434.073	308.3
434.533	267.7
434.993	254.6
435.452	264.8
435.912	269.4
436.371	261.6
436.83	264.7
437.29	246
437.749	240.6
438.209	235.5
438.668	261.9
439.127	264.9
439.587	249.2
440.046	235.5
440.505	248.2
440.964	261.7
441.424	300.4
441.883	296.8
442.342	253
442.801	221.1
443.26	216.3
443.719	214.4
444.178	216.4
444.637	209.7
445.096	220.9
445.555	215.5
446.014	225.9
446.473	222.7
446.932	228.6
447.391	222.4
447.849	225.2
448.308	216.1
448.767	218.2
449.226	229.7
449.685	239.9
450.143	246.4
450.602	234.9
451.061	227.4
451.519	231.2
451.978	225.5
452.436	232.9
452.895	237.4
453.353	251
453.812	234.9
454.27	234.6
454.729	239.9
455.187	239.4
455.646	236.1
456.104	244.7
456.562	251.9
457.021	258.9
457.479	262.7
457.937	263.9
458.395	250.3
458.854	244.6
459.312	246.1
459.77	266.4
460.228	256.1
460.686	245.5
461.144	248.5
461.602	245.6
462.06	233.6
462.518	256.5
462.976	251.3
463.434	262.1
463.892	262.5
464.35	269
464.808	289.7
465.266	269
465.724	269.2
466.181	272.7
466.639	266
467.097	281.6
467.555	300
468.012	302.9
468.47	306.3
468.928	317.6
469.385	336.8
469.843	336.6
470.3	349.3
470.758	362.6
471.215	382.7
471.673	392.8
472.13	393.5
472.588	407.9
473.045	367.7
473.503	376.6
473.96	382.2
474.417	403.5
474.875	431.7
475.332	460.8
475.789	447.2
476.246	465.6
476.704	481.1
477.161	497.8
477.618	506.8
478.075	552.2
478.532	589.9
478.989	662.4
479.446	771.9
479.903	734.5
480.36	772.3
480.817	809.7
481.274	903.2
481.731	996
482.188	1061
482.645	1180.6
483.102	1267.9
483.558	1393.7
484.015	1421.2
484.472	1376.1
484.929	1349
485.385	1316.9
485.842	1281.3
486.299	1234.8
486.755	1205.2
487.212	1010.9
487.668	870.2
488.125	809.4
488.582	741.2
489.038	723.6
489.494	681.5
489.951	666.1
490.407	644.4
490.864	626.4
491.32	628.6
491.776	618.5
492.233	635.9
492.689	596.6
493.145	602.8
493.602	590.7
494.058	611.6
494.514	598.7
494.97	632.1
495.426	636.1
495.882	610.1
496.338	606.7
496.794	616.9
497.251	606.1
497.707	623.5
498.163	621
498.618	630.2
499.074	621.2
499.53	663.1
499.986	651.3
500.442	637.4
500.898	617.3
501.354	606.7
501.809	614.7
502.265	616.4
502.721	634
503.177	634.6
503.632	638.5
504.088	648.6
504.543	673.6
504.999	688.8
505.455	652.2
505.91	632.1
506.366	629
506.821	623.5
507.277	624.4
507.732	631.5
508.187	627.4
508.643	636.7
509.098	633.7
509.553	655.1
510.009	661.5
510.464	669.7
510.919	692.2
511.375	689.8
511.83	714
512.285	715.6
512.74	757.7
513.195	777.6
513.65	758.3
514.105	759.3
514.56	759.9
515.015	778.5
515.47	795.4
515.925	777.6
516.38	774.6
516.835	789.3
517.29	782
517.745	775.2
518.2	764.7
518.655	749.7
519.109	739.3
519.564	741.5
520.019	724.4
520.474	713.2
520.928	723.6
521.383	717.6
521.838	712.3
522.292	701.4
522.747	711.8
523.201	712.9
523.656	702.3
524.11	691.5
524.565	692.8
525.019	687.2
525.474	694.6
525.928	700.9
526.382	689.5
526.837	694.3
527.291	705.1
527.745	696.2
528.2	695.4
528.654	686
529.108	687.6
529.562	695
530.016	697
530.47	697.2
530.925	696.4
531.379	693.4
531.833	709.7
532.287	695.1
532.741	699.6
533.195	698.3
533.649	716.3
534.103	715.4
534.556	693.6
535.01	710.4
535.464	703.3
535.918	717
536.372	711.7
536.826	712.2
537.279	709.3
537.733	707.6
538.187	710.2
538.64	713.8
539.094	721.6
539.548	730.7
540.001	729.2
540.455	728.3
540.908	735.4
541.362	738.3
541.815	752.6
542.269	767.8
542.722	770.1
543.175	766
543.629	778.2
544.082	791.2
544.536	794.6
544.989	790.2
545.442	805
545.895	797.7
546.349	796.1
546.802	799
547.255	812.1
547.708	816.9
548.161	833.8
548.614	827.9
549.067	834.4
549.52	822.7
549.973	814.9
550.426	827.8
550.879	807.9
551.332	808.8
551.785	813.6
552.238	821.5
552.691	831.3
553.144	838.3
553.596	861.7
554.049	869.9
554.502	910.5
554.955	917.8
555.407	926.5
555.86	918.3
556.313	903.4
556.765	882.6
557.218	896.1
557.67	897
558.123	888.7
558.576	886.9
559.028	892.5
559.48	895.5
559.933	881.9
560.385	846.9
560.838	816.9
561.29	797.6
561.742	800
562.195	782.2
562.647	778.5
563.099	782.9
563.551	784.8
564.004	786.1
564.456	779.4
564.908	772.4
565.36	749.3
565.812	731.2
566.264	727.4
566.716	723.5
567.168	716.9
567.62	718.4
568.072	710.4
568.524	707.3
568.976	695.8
569.428	686.9
569.88	685
570.332	701.7
570.784	699
571.235	700.1
571.687	705.7
572.139	711.7
572.59	727.6
573.042	722.3
573.494	722.8
573.945	715.4
574.397	690.4
574.849	702.1
575.3	705.8
575.752	697.5
576.203	686
576.655	698.6
577.106	692.3
577.557	675.3
578.009	679
578.46	674.7
578.912	668.9
579.363	676.3
579.814	681.6
580.265	678.3
580.717	671.8
581.168	677.4
581.619	690.8
582.07	692.7
582.521	688.1
582.972	683.9
583.423	678.5
583.875	689.5
584.326	696.7
584.777	702.8
585.227	734.3
585.678	761.6
586.129	782.7
586.58	819.2
587.031	842.1
587.482	872.5
587.933	930.4
588.384	878.6
588.834	824.3
589.285	794.1
589.736	787.5
590.186	779.6
590.637	784.6
591.088	752.4
591.538	747.5
591.989	741.5
592.439	734
592.89	731
593.34	719.8
593.791	718.4
594.241	715.3
594.692	716.6
595.142	710.9
595.593	705.6
596.043	715.3
596.493	712.8
596.943	714.6
597.394	722.8
597.844	726.4
598.294	745.5
598.744	768.3
599.195	799.6
599.645	825.6
600.095	880.2
600.545	946
600.995	994.4
601.445	1059.6
601.895	1110.7
602.345	1155.2
602.795	1130.4
603.245	1096.2
603.695	1035.2
604.145	977.8
604.594	947.5
605.044	890.4
605.494	814.7
605.944	764.3
606.393	757.1
606.843	746.8
607.293	740.8
607.743	741
608.192	759.9
608.642	753.9
609.091	780.1
609.541	779.9
609.99	775
610.44	777.8
610.889	722.7
611.339	713.6
611.788	691.4
612.238	717.1
612.687	708.4
613.136	708.5
613.586	726.1
614.035	709
614.484	733.3
614.933	724.4
615.383	716.1
615.832	719.5
616.281	715.1
616.73	685
617.179	673.4
617.628	650.5
618.077	651.2
618.526	639.3
618.975	630.9
619.424	630.1
619.873	636.1
620.322	633.8
620.771	615.8
621.22	612.9
621.669	595.4
622.118	602.5
622.567	591.2
623.015	574.4
623.464	583.7
623.913	565.2
624.361	563.9
624.81	569.8
625.259	566
625.707	574
626.156	562.6
626.604	581.7
627.053	576.3
627.501	572.8
627.95	586.2
628.398	592.9
628.847	587.8
629.295	586.5
629.744	587.7
630.192	590.9
630.64	576.4
631.089	560.8
631.537	550.3
631.985	547.5
632.433	551.4
632.881	543
633.33	553.8
633.778	548.2
634.226	543
634.674	558.6
635.122	548.3
635.57	574
636.018	580.4
636.466	569.6
636.914	565.6
637.362	589.3
637.81	590.5
638.258	597.6
638.705	603.1
639.153	625.8
639.601	637.3
640.049	656.6
640.497	688.1
640.944	703.5
641.392	660.3
641.84	635.3
642.287	598.5
642.735	577.8
643.182	575.4
643.63	571.4
644.078	581.8
644.525	589.4
644.973	592.1
645.42	604.4
645.867	633
646.315	635.5
646.762	661.4
647.21	683.4
647.657	721.9
648.104	752
648.551	779.3
648.999	835.6
649.446	910
649.893	982.9
650.34	1124
650.787	1346.2
651.234	1663.2
651.682	2152
652.129	2936.4
652.576	4176.1
653.023	6107.7
653.47	8212.1
653.917	10163
654.363	11551.9
654.81	12702.4
655.257	12007.2
655.704	7960.7
656.151	4779.2
656.598	3144.6
657.044	2273.5
657.491	1757.1
657.938	1406.6
658.385	1199.1
658.831	1044.2
659.278	935.8
659.724	839.2
660.171	778.2
660.618	716.5
661.064	690.9
661.511	666.9
661.957	656
662.404	647.9
662.85	654
663.296	629.4
663.743	567.3
664.189	542.8
664.635	550.6
665.082	536
665.528	539.5
665.974	531.2
666.42	526
666.867	515.5
667.313	494.2
667.759	477
668.205	465.4
668.651	470.6
669.097	456
669.543	464
669.989	461.3
670.435	464.5
670.881	455.4
671.327	467.5
671.773	480.7
672.219	512.8
672.665	558.1
673.11	609.3
673.556	649.5
674.002	697.1
674.448	672.6
674.893	562.9
675.339	497.6
675.785	458.7
676.23	425.3
676.676	400
677.122	395
677.567	381.9
678.013	384.4
678.458	373.9
678.904	369.7
679.349	354
679.794	362.7
680.24	362.5
680.685	361.6
681.131	368
681.576	367.3
682.021	372.3
682.466	366.4
682.912	363.3
683.357	370.8
683.802	403.7
684.247	420.6
684.692	474.7
685.137	512.6
685.583	553.5
686.028	577.7
686.473	540.7
686.918	464.9
687.363	428
687.807	410.3
688.252	380.4
688.697	373.7
689.142	349.3
689.587	347
690.032	336.9
690.477	365.7
690.921	373.8
691.366	399.7
691.811	416.6
692.255	443.8
692.7	485.2
693.145	536.4
693.589	754.3
694.034	1232.8
694.478	1640.9
694.923	1797.4
695.367	2331.2
695.812	1256.7
696.256	523.3
696.701	385.2
697.145	348.5
697.59	341.3
698.034	331.7
698.478	341.2
698.922	331.1
699.367	335.3
699.811	346.5
700.255	367.2
700.699	400.5
701.143	445.8
701.588	498.8
702.032	532
702.476	532.2
702.92	513.1
703.364	532.1
703.808	693
704.252	1122.5
704.696	1546.8
705.14	1743.5
705.584	2192.2
706.027	1114.7
706.471	550
706.915	413.8
707.359	370
707.803	340
708.246	328.6
708.69	324.9
709.134	322.3
709.577	319
710.021	321.1
710.465	324.6
710.908	320.7
711.352	315.7
711.795	326.2
712.239	364.7
712.682	395.7
713.126	420.8
713.569	474.9
714.012	367
714.456	323.1
714.899	299.3
715.342	284.6
715.786	272.6
716.229	274.1
716.672	262.4
717.115	252.6
717.558	264.7
718.002	263.3
718.445	279
718.888	297.7
719.331	305.4
719.774	317.8
720.217	321.3
720.66	298.1
721.103	279.6
721.546	270.9
721.989	263.1
722.432	245.6
722.874	246.6
723.317	239.9
723.76	241
724.203	267.3
724.645	342.8
725.088	473.1
725.531	596.4
725.974	662.7
726.416	565.4
726.859	315.9
727.301	258.6
727.744	251.9
728.187	244.9
728.629	242.3
729.071	252.9
729.514	277.8
729.956	277.9
730.399	298.3
730.841	298.5
731.283	285.5
731.726	282.2
732.168	274.4
732.61	280.7
733.053	297.8
733.495	342.8
733.937	374.7
734.379	428.5
734.821	470.5
735.263	588.6
735.705	914.4
736.148	1733
736.59	2772.9
737.032	3172.5
737.474	2594.8
737.916	861.4
738.357	447.9
738.799	344.6
739.241	310.9
739.683	303.1
740.125	309
740.567	314.9
741.008	326.7
741.45	330.6
741.892	327.6
742.334	369.9
742.775	375.7
743.217	355.9
743.658	287.2
744.1	268.5
744.542	281.4
744.983	323.9
745.425	356.5
745.866	360.9
746.307	292.9
746.749	292
747.19	347
747.632	500.3
748.073	1001.1
748.514	2049
748.956	3028
749.397	3797.7
749.838	3149.3
750.279	3068
750.72	1568
751.162	582.7
751.603	333.6
752.044	273.3
752.485	234.5
752.926	220
753.367	212.6
753.808	202.5
754.249	203.9
754.69	200.5
755.131	192.3
755.572	187.1
756.013	188.9
756.453	190
756.894	194.6
757.335	200
757.776	203.4
758.216	201
758.657	204.8
759.098	212.8
759.538	230.5
759.979	287.7
760.42	402.5
760.86	793.8
761.301	2062.9
761.741	4842.7
762.182	6680.2
762.622	4696.9
763.063	1395.6
763.503	577.4
763.943	349.4
764.384	291.4
764.824	275
765.264	260.1
765.705	223.9
766.145	193
766.585	182.1
767.025	179.4
767.465	171.4
767.906	193.4
768.346	215
768.786	218.7
769.226	230.8
769.666	333.9
770.106	690.5
770.546	1718.8
770.986	2756.6
771.426	2434.3
771.866	828.2
772.306	349.4
772.745	214.1
773.185	176.6
773.625	169.6
774.065	166
774.505	175.7
774.944	225.4
775.384	415.5
775.824	650.8
776.263	623.7
776.703	304
777.142	161.1
777.582	134.2
778.021	126.8
778.461	122.3
778.9	130.2
779.34	133.9
779.779	120.4
780.219	108.1
780.658	114.3
781.097	116.2
781.537	114.6
781.976	108.8
782.415	113.4
782.855	107.5
783.294	108.4
783.733	111.1
784.172	110
784.611	109.1
785.05	111.2
785.489	116.8
785.928	128.1
786.367	121.9
786.806	127.4
787.245	129.1
787.684	144.1
788.123	150
788.562	144.7
789.001	132.9
789.44	127.2
789.879	125.5
790.317	126
790.756	128.7
791.195	138.7
791.634	154.1
792.072	217.6
792.511	403.1
792.95	1127.8
793.388	2226
793.827	1966.5
794.265	709.7
794.704	292.5
795.142	191.8
795.581	152.8
796.019	144.5
796.458	134
796.896	125.4
797.334	141
797.773	167.4
798.211	235.6
798.649	493.7
799.087	1099.1
799.526	1708.2
799.964	2157.5
800.402	2072.2
800.84	793.4
801.278	320.5
801.716	195.9
802.154	165.6
802.592	159.9
803.03	149
803.468	141.4
803.906	153.9
804.344	160
804.782	144.6
805.22	139.6
805.658	137.1
806.096	160
806.533	169.7
806.971	185.5
807.409	237.5
807.847	347
808.284	739.5
808.722	2071.6
809.16	3482.8
809.597	3451.2
810.035	5852.5
810.472	5965.2
810.91	2196.4
811.347	853.5
811.785	426.6
812.222	273.2
812.66	203.2
813.097	171.4
813.535	151.4
813.972	133.1
814.409	119.4
814.846	116.7
815.284	113.5
815.721	109.9
816.158	108.7
816.595	115.6
817.032	163.6
817.47	180.4
817.907	133.4
818.344	107.4
818.781	107.8
819.218	107.4
819.655	139.6
820.092	199.3
820.529	218.3
820.966	180.1
821.403	134.1
821.839	109.7
822.276	93.4
822.713	128.6
823.15	142.8
823.587	125
824.023	157.9
824.46	332.8
824.897	982.5
825.333	1400.9
825.77	609.2
826.206	252.2
826.643	142.2
827.08	103.8
827.516	89.5
827.953	85.4
828.389	87.3
828.825	72.2
829.262	68.4
829.698	65.2
830.135	64.9
830.571	59.8
831.007	67.6
831.443	62.9
831.88	62.5
832.316	65.8
832.752	64.9
833.188	70.1
833.624	65.1
834.06	68.9
834.497	70.8
834.933	72.7
835.369	77.2
835.805	71.3
836.241	81.4
836.677	91.2
837.112	94.4
837.548	112.4
837.984	148.1
838.42	222.7
838.856	557
839.292	1649.8
839.727	2412.5
840.163	1131.6
840.599	1026
841.034	2190.4
841.47	2188.9
841.906	819.4
842.341	353.9
842.777	211.7
843.212	213.4
843.648	199.7
844.083	114.5
844.519	89.5
844.954	71
845.39	58
845.825	62.4
846.261	57.1
846.696	58.7
847.131	57.9
847.566	63
848.002	53.9
848.437	55.7
848.872	62
849.307	66
849.742	94.2
850.177	205.4
850.613	611.8
851.048	908.5
851.483	395.1
851.918	162.9
852.353	94.4
852.788	56.2
853.223	63.4
853.657	55.8
854.092	53.4
854.527	44.6
854.962	43.7
855.397	51.7
855.832	52.4
856.266	44.2
856.701	39.3
857.136	35.9
857.57	49.1
858.005	55.5
858.44	57.8
858.874	48.1
859.309	53.6
859.743	40.8
860.178	51.7
860.612	46.7
861.047	57.4
861.481	79.3
861.915	76.1
862.35	54.1
862.784	33.7
863.218	42.9
863.653	40.5
864.087	51.4
864.521	54.3
864.955	72.4
865.39	161.5
865.824	177.1
866.258	125.3
866.692	176.7
867.126	188.6
867.56	114.3
867.994	61.7
868.428	41.6
868.862	54.2
869.296	58.6
869.73	61.8
870.164	60.6
870.598	52.3
871.031	44.3
871.465	33.7
871.899	40
872.333	24
872.766	30.5
873.2	24.2
873.634	32.6
874.067	27.6
874.501	31.4
874.935	36.3
875.368	31.4
875.802	21.8
876.235	20.5
876.669	26.1
877.102	21.3
877.535	25.7
877.969	24.2
878.402	28.2
878.836	24.3
879.269	27.7
879.702	24.4
880.135	18.9
880.569	21
881.002	26.6
881.435	23.7
881.868	14.8
882.301	20.1
882.734	18.5
883.167	21.4
883.601	20.5
884.034	21.6
884.467	19.7
884.899	17
885.332	15.7
885.765	13.5
886.198	19.9
886.631	18.4
887.064	19.3
887.497	20
887.929	21
888.362	16
888.795	18.2
889.228	20.4
889.66	21.1
890.093	18.9
890.526	13.8
890.958	21.4
891.391	18.5
891.823	20.6
892.256	17.7
892.688	15.4
893.121	19.3
893.553	19.2
893.985	25.3
894.418	18.7
894.85	11.1
895.282	13.7
895.715	18.5
896.147	20.7
896.579	15.8
897.011	12.2
897.444	16.9
897.876	8.4
898.308	16.9
898.74	20
899.172	15.7
899.604	21
900.036	18.9
900.468	13.9
900.9	16.4
901.332	17
901.764	14
902.196	22.8
902.628	20.9
903.06	19.7
903.491	28.9
903.923	26
904.355	16.6
904.787	24.5
905.218	25.6
905.65	21.4
906.082	17.4
906.513	10
906.945	14
907.376	9.9
907.808	16.4
908.239	15.6
908.671	18.5
909.102	20.8
909.534	27.9
909.965	51
910.397	94.6
910.828	335.2
911.259	500
911.691	226.9
912.122	110
912.553	58.8
912.984	36.7
913.415	26.1
913.847	28
914.278	12.3
914.709	15.1
915.14	18.6
915.571	15
916.002	15.1
916.433	19
916.864	18.2
917.295	10.2
917.726	25
918.157	18.1
918.587	37.4
919.018	26.4
919.449	26.2
919.88	22.7
920.311	28.5
920.741	54.6
921.172	181.5
921.603	160.7
922.033	77.5
922.464	49.5
922.895	25.3
923.325	21.6
923.756	13
924.186	11.4
924.617	16.6
925.047	20.8
925.478	25.1
925.908	21.1
926.338	14.1
926.769	10.6
927.199	21.7
927.629	8.3
928.06	16.6
928.49	11.2
928.92	7.3
929.35	8.8
929.78	11.1
930.21	3.2
930.641	6
931.071	4.8
931.501	3.1
931.931	10.5
932.361	4.6
932.791	2.3
933.221	13.7
933.651	7.2
934.08	18.6
934.51	31.5
934.94	14.8
935.37	8.9
935.8	13.9
936.229	3.1
936.659	5.7
937.089	2.7
937.519	15.9
937.948	28.9
938.378	19.8
938.807	3.9
939.237	6.9
939.666	6.7
940.096	-1.4
940.525	6.6
940.955	8.5
941.384	-0.2
941.814	-2.6
942.243	-6.2
942.672	1.7
943.102	-0.9
943.531	0.4
943.96	2.5
944.39	1.1
944.819	1
945.248	-1.6
945.677	-2.9
946.106	3
946.535	3
946.964	-0.1
947.393	3.2
947.822	1.7
948.251	-8.9
948.68	2.2
949.109	0.4
949.538	9.5
949.967	2.9
950.396	2.7
950.825	-1.7
951.254	1.5
951.682	-9
952.111	0.9
952.54	6.7
952.969	1.2
953.397	-1.5
953.826	-2.1
954.254	-4.2
954.683	5.8
955.112	1.7
955.54	-3
955.969	2.9
956.397	-2.2
956.826	2.4
957.254	12.1
957.682	1.9
958.111	4.9
958.539	-9.2
958.967	-1.9
959.396	-1.1
959.824	0.6
960.252	-0.5
960.68	-0.2
961.109	-4.7
961.537	-8.9
961.965	-0.1
962.393	1.4
962.821	-3.5
963.249	5.9
963.677	3.9
964.105	8.8
964.533	43.8
964.961	47.7
965.389	26.8
965.817	13.7
966.245	4.7
966.672	-4
967.1	-1.5
967.528	-4.3
967.956	-6.2
968.383	-1.1
968.811	-1.4
969.239	-8.7
969.666	-3.3
970.094	-0
970.522	-0.6
970.949	-2.6
971.377	-0.3
971.804	0.9
972.232	-2.5
972.659	1.2
973.087	-5
973.514	7
973.941	-5.6
974.369	2.8
974.796	2.4
975.223	-3.1
975.651	-0.9
976.078	-0.2
976.505	0.4
976.932	-0.8
977.359	19
977.786	15.6
978.214	2.3
978.641	-6.7
979.068	0.8
979.495	-3
979.922	-3.3
980.349	-5
980.776	8.7
981.202	0.3
981.629	4.3
982.056	5.3
982.483	-4.9
982.91	7.1
983.337	-8.7
983.763	1
984.19	-0.1
984.617	-6.5
985.043	-9.3
985.47	-4.6
985.897	-1.3
986.323	-2.6
986.75	6.2
987.176	-0.3
987.603	2.9
988.029	-0.6
988.456	-1.2
988.882	2.7
989.308	-6.7
989.735	-2.8
990.161	2.6
990.587	-4.4
991.014	-1
991.44	12
991.866	2.6
992.292	-1.9
992.719	-0.8
993.145	4.6
993.571	-6.5
993.997	-1.8
994.423	-2
994.849	-4.4
995.275	0.5
995.701	7.7
996.127	3.9
996.553	-0.7
996.979	-3.7
997.405	0.7
997.83	-6.4
998.256	-8.6
998.682	-5.8
999.108	-8.3
999.534	-2.9
999.959	-3.2
1000.385	2.4
1000.811	-0.2
1001.236	-11
1001.662	-9.9
1002.087	-4
1002.513	-6.2
1002.938	-1.5
1003.364	2.3
1003.789	-1.2
1004.215	4.2
1004.64	-5.7
1005.066	-4.5
1005.491	0.3
1005.916	2.7
1006.342	-2.8
1006.767	-10.9
1007.192	11.4
1007.617	-7.2
1008.042	-5.1
1008.468	-10.4
1008.893	0.4
1009.318	-4.5
1009.743	-2
1010.168	1.8
1010.593	-2.6
1011.018	-9.5
1011.443	-7.2
1011.868	-2.6
1012.293	-2.6
1012.718	-10.3
1013.143	-3.2
1013.567	2.8
1013.992	0.3
1014.417	-13.7
1014.842	-0.9
1015.267	-7.1
1015.691	-4.9
1016.116	2.1
1016.541	6.3
1016.965	1.1
1017.39	1.3
1017.814	-3.6
1018.239	-8.1
1018.663	-10.4
1019.088	-13.4
1019.512	-0.9
1019.937	-2
1020.361	-3.6
1020.785	-5.7
1021.21	-2
1021.634	1.2
1022.058	1.7
1022.483	3
1022.907	-9.3
1023.331	-2.3
1023.755	-5.5
1024.179	-5.2
1024.604	-8.8
1025.028	-9.2
1025.452	-5
1025.876	-7.6
1026.3	-3.6
1026.724	-8.1
1027.148	-3.9
1027.572	-10.6
1027.996	-4.3
1028.42	-6.6
1028.843	-2
1029.267	-5.2
1029.691	0.2
1030.115	-3.5
1030.539	-6.4
1030.962	-9
1031.386	-11.4
1031.81	-1.1
1032.233	0.4
1032.657	0.1
1033.08	0.4
1033.504	-5.2
1033.927	-3.2
1034.351	-0.7
1034.774	-2.9
1035.198	-4.9
1035.621	-8.1
1036.045	-6.9
1036.468	1.2
1036.891	-11
1037.315	-9.5
1037.738	-5.2
1038.161	0.3
1038.584	-4
1039.008	-2.8
1039.431	-5.4
1039.854	-11.8
1040.277	-15.9
1040.7	-9.3
1041.123	-0.4
1041.546	-11.2
1041.969	-5.2
1042.392	1.5
1042.815	-0.7
1043.238	3.2
1043.661	-0.3
1044.084	-4.4
1044.507	-0.4
1044.93	-6.2
1045.352	-4.3
1045.775	3.8
1046.198	-3.6
1046.621	-9.8
1047.043	-3.5
1047.466	0.6
1047.889	-6.4
1048.311	-3.7
1048.734	-2.7
1049.156	-4.7
1049.579	-2.4
1050.001	-5.4
1050.424	-8.1
1050.846	-6.6
1051.269	-4.2
1051.691	-1.9
1052.113	-7.4
1052.536	-2.5
1052.958	-4.4
1053.38	-8
1053.802	-7
1054.225	-1.6
1054.647	-10.3
1055.069	-6.1
1055.491	1.6
1055.913	-11.8
1056.335	-0.2
1056.757	-8.1
1057.179	-7.1
1057.601	-6.1
1058.023	-0.3
1058.445	2.3
1058.867	-7.9
1059.289	1.1
1059.711	-5.2
1060.133	1.8
1060.555	-2.6
1060.976	-13.8
1061.398	-4.7
1061.82	-11.1
1062.241	-7.1
1062.663	-3.5
1063.085	-3.4
1063.506	-1.5
1063.928	-6.9
1064.35	-2.1
1064.771	-8.4
1065.193	-3.8
1065.614	-7.5
1066.035	-3
1066.457	-0.4
1066.878	1.5
1067.3	-1.6
1067.721	2.9
1068.142	-5.8
1068.564	-1.8
1068.985	-2.6
1069.406	-5
1069.827	-7.1
1070.248	-4.4
1070.67	-1.8
1071.091	-6.6
1071.512	0.7
1071.933	-7.1
1072.354	-2
1072.775	-8.3
1073.196	-6.6
1073.617	0.9
1074.038	-10.8
1074.459	-2.7
1074.88	-11.1
1075.3	0.4
1075.721	-4.1
1076.142	-3.7
1076.563	1.8
1076.983	-8.1
1077.404	-4.2
1077.825	-12.3
1078.246	-6.6
1078.666	-9.6
1079.087	-3.4
1079.507	-5
1079.928	3.7
1080.348	1.9
1080.769	-8
1081.189	-2.7
1081.61	-6.6
1082.03	-9.4
1082.451	-7.7
1082.871	0.7
1083.291	-9.7
1083.711	-11.1
1084.132	-4.2
1084.552	-9
1084.972	-1.8
1085.392	-12.9
1085.813	-5.5
1086.233	-5.8
1086.653	-5.3
1087.073	-5.1
1087.493	-13.6
1087.913	-10.1
1088.333	-8.3
1088.753	-5.5
1089.173	1
1089.593	-0.9
1090.013	2.4
1090.433	1.1
1090.852	-0.4
1091.272	-2.9
1091.692	-8.9
1092.112	-5.3
1092.531	-10.8
1092.951	-12.8
1093.371	-6.3
1093.79	0.1
1094.21	-8.4
1094.63	-9
1095.049	-3.9
1095.469	-5.4
1095.888	-2.4
1096.308	-1.8
1096.727	5
1097.146	-10
1097.566	-3.6
1097.985	-5.9
1098.405	-5.5
1098.824	-9.9
1099.243	-9.5
1099.662	-6.1
1100.082	-0.3
1100.501	-3.7
1100.92	-3.4
1101.339	-4.1
1101.758	-5.2
