Data from 20171114-ORNL-Ar_H_NY_Subt18_08-05-51-526.txt Node
Date: Tue Nov 14 08:05:51 EST 2017
User: Ender
Spectrometer: HR+D1039
Trigger mode: 0
Integration Time (sec): 2.730000E-2
Scans to average: 10
Electric dark correction enabled: true
Nonlinearity correction enabled: false
Boxcar width: 0
XAxis mode: Wavelengths
Number of Pixels in Spectrum: 2048
>>>>>Begin Spectral Data<<<<<
187.836	-3.1
188.309	-3.1
188.782	-3.1
189.255	-3.7
189.728	-4.8
190.201	6.5
190.674	2.7
191.147	1.9
191.619	-8.1
192.092	0.6
192.565	2.7
193.038	-2.3
193.511	1.8
193.984	1.7
194.456	-0
194.929	-0.3
195.402	-0
195.874	4.4
196.347	-2.4
196.82	-6.5
197.292	5.4
197.765	-5.2
198.237	-4.6
198.71	4.6
199.182	-1
199.655	3.4
200.127	0.9
200.6	-0.2
201.072	2.1
201.544	-3.2
202.017	0.5
202.489	1.5
202.961	-7.7
203.433	-3.3
203.906	-9.7
204.378	-8.2
204.85	-2.3
205.322	-5.1
205.794	-4
206.266	-2.8
206.739	-12.1
207.211	2.3
207.683	-7.6
208.155	-6.2
208.627	-9.8
209.099	-4.8
209.57	-8.1
210.042	-2.7
210.514	-4.6
210.986	-1.8
211.458	-9.1
211.93	2.4
212.402	4.6
212.873	-7.9
213.345	-6
213.817	-8.6
214.288	-3.3
214.76	-6.2
215.232	0.6
215.703	-1.9
216.175	-0.5
216.646	1.2
217.118	-5.8
217.589	-1.9
218.061	-1.6
218.532	-12.9
219.004	-5.9
219.475	-1.9
219.946	-8.3
220.418	-3.9
220.889	-1.6
221.36	3.3
221.832	1.7
222.303	-9.5
222.774	4
223.245	-5.6
223.717	-5.5
224.188	-8.4
224.659	-7.4
225.13	-5.1
225.601	-2.6
226.072	0.5
226.543	-1.3
227.014	-1.3
227.485	-2.2
227.956	-5.6
228.427	2
228.898	-1.7
229.369	6.3
229.839	-1.9
230.31	-1
230.781	3.3
231.252	2.5
231.722	-2
232.193	-3.6
232.664	-2.2
233.135	-0
233.605	3.9
234.076	-5.2
234.546	1.6
235.017	4.2
235.487	1.9
235.958	2.2
236.428	4.1
236.899	4.7
237.369	6.3
237.84	-0
238.31	4.4
238.78	8.2
239.251	3.5
239.721	0.6
240.191	-2.4
240.662	2
241.132	5.6
241.602	-2.2
242.072	5.3
242.542	7.1
243.013	5.1
243.483	3.2
243.953	2.5
244.423	2.5
244.893	-0.3
245.363	6.6
245.833	0.3
246.303	1.1
246.773	9.3
247.243	6.5
247.712	6.3
248.182	11.5
248.652	11
249.122	1.7
249.592	16.8
250.061	22.8
250.531	39
251.001	16.9
251.471	22
251.94	23.7
252.41	9.5
252.879	-0.5
253.349	16.2
253.818	11
254.288	4.5
254.757	2.4
255.227	-1.8
255.696	5.7
256.166	9.1
256.635	1.5
257.105	10.1
257.574	9.9
258.043	17.3
258.513	15.4
258.982	19.2
259.451	14.5
259.92	17.7
260.389	13.2
260.859	18.3
261.328	14.8
261.797	21.7
262.266	2.9
262.735	9.4
263.204	1.4
263.673	2.7
264.142	10.5
264.611	-0.4
265.08	6.7
265.549	0.5
266.018	7
266.487	-0.1
266.955	0.3
267.424	2.1
267.893	6.2
268.362	4.7
268.83	2.8
269.299	14.7
269.768	10.3
270.236	6.4
270.705	-1.7
271.174	8.8
271.642	12.3
272.111	13.1
272.579	16.3
273.048	27.1
273.516	29.3
273.985	25.8
274.453	26
274.922	21.8
275.39	14.2
275.858	4.4
276.327	12.8
276.795	22.1
277.263	8.9
277.731	31.1
278.2	53.6
278.668	62.1
279.136	54.6
279.604	14.3
280.072	15.2
280.54	10.9
281.008	13.5
281.477	16.8
281.945	9.4
282.413	15.3
282.881	17
283.348	13.3
283.816	16.1
284.284	17.9
284.752	19.9
285.22	14
285.688	18.9
286.156	21.4
286.623	50.6
287.091	54.5
287.559	29.3
288.026	19.4
288.494	19.1
288.962	6.5
289.429	11.1
289.897	13.9
290.364	14.3
290.832	18.9
291.3	17.6
291.767	17.8
292.234	22
292.702	21.1
293.169	16.2
293.637	24.3
294.104	19.3
294.571	13.5
295.039	13.2
295.506	17.2
295.973	18.8
296.44	15.6
296.908	23.6
297.375	22.4
297.842	24.2
298.309	22.4
298.776	14.8
299.243	25.8
299.71	15.2
300.177	23.6
300.644	28.2
301.111	27.6
301.578	24.2
302.045	14.6
302.512	25.2
302.979	27.8
303.446	27.8
303.913	23.5
304.379	19.2
304.846	24.9
305.313	25
305.78	27.8
306.246	26.6
306.713	31.4
307.18	25.7
307.646	31.5
308.113	37.2
308.579	30.4
309.046	23.9
309.512	25.3
309.979	27.3
310.445	32.6
310.912	29.6
311.378	40.7
311.845	34.1
312.311	37.2
312.777	33
313.244	38.3
313.71	40.3
314.176	33
314.642	30.9
315.109	33
315.575	37.6
316.041	47
316.507	35.2
316.973	38.2
317.439	35.8
317.905	40.1
318.371	38.4
318.837	35.2
319.303	33.1
319.769	36.7
320.235	37.2
320.701	45.5
321.167	37.2
321.633	36.5
322.099	46.6
322.564	50.7
323.03	37.9
323.496	37.3
323.962	42.2
324.427	37.8
324.893	38.9
325.359	40.4
325.824	41.5
326.29	35
326.755	35.2
327.221	38.4
327.686	38.8
328.152	47.1
328.617	43.1
329.083	49.3
329.548	51.1
330.014	48.2
330.479	38
330.944	46.8
331.41	43.8
331.875	47.7
332.34	46.8
332.805	46.3
333.271	48.1
333.736	46.7
334.201	51.2
334.666	53.7
335.131	61.1
335.596	50.9
336.061	52.1
336.526	46.5
336.991	53.3
337.456	51.3
337.921	56.4
338.386	46.8
338.851	53.9
339.316	47.3
339.781	50.2
340.246	47.8
340.711	50.2
341.175	52.8
341.64	43.7
342.105	52.3
342.569	55.3
343.034	63.9
343.499	55.5
343.963	54.8
344.428	68.7
344.893	61.7
345.357	63.8
345.822	65.3
346.286	68.5
346.751	77.2
347.215	73.6
347.679	83.9
348.144	101.2
348.608	81.3
349.073	73.7
349.537	77.7
350.001	84.1
350.465	90.8
350.93	83
351.394	83.1
351.858	79
352.322	90.1
352.786	82.6
353.25	99.9
353.715	110.4
354.179	106.2
354.643	126.6
355.107	131.5
355.571	114.6
356.035	107.4
356.498	118.5
356.962	125.5
357.426	129.7
357.89	117.7
358.354	95
358.818	83.7
359.281	79.3
359.745	78.5
360.209	74.7
360.673	75.9
361.136	83.7
361.6	83.8
362.064	88.4
362.527	90
362.991	87.5
363.454	83.1
363.918	75.9
364.381	80
364.845	85.5
365.308	88.6
365.772	88.2
366.235	93.2
366.698	82.7
367.162	83.8
367.625	94.3
368.088	90.9
368.552	92.5
369.015	95.5
369.478	99.6
369.941	103.7
370.404	97.7
370.867	107.5
371.331	111.6
371.794	118.2
372.257	112.8
372.72	119.9
373.183	109.2
373.646	109.4
374.109	105.4
374.572	107.8
375.035	112.8
375.497	110
375.96	113
376.423	105.3
376.886	114.6
377.349	111.9
377.811	109.9
378.274	108.5
378.737	113
379.199	112.2
379.662	114.6
380.125	113.6
380.587	123
381.05	131.6
381.512	132.5
381.975	132.8
382.437	128.2
382.9	128
383.362	132.8
383.825	150.8
384.287	144.6
384.75	149.3
385.212	138.5
385.674	146
386.136	135.5
386.599	130.2
387.061	131
387.523	131.9
387.985	138.8
388.447	144
388.91	153.7
389.372	161.6
389.834	153.9
390.296	145.1
390.758	154.5
391.22	174.4
391.682	213.3
392.144	301
392.606	234.3
393.068	172.4
393.529	171.8
393.991	159
394.453	141.3
394.915	155.6
395.377	190.8
395.838	218.3
396.3	159.4
396.762	139.2
397.224	142.1
397.685	133.1
398.147	133.3
398.608	130.1
399.07	131
399.531	140.3
399.993	143.6
400.454	151.4
400.916	145.9
401.377	144.6
401.839	154.8
402.3	157.3
402.762	168.8
403.223	183.7
403.684	174.8
404.145	161.4
404.607	157.9
405.068	164.3
405.529	176.1
405.99	191.6
406.451	179.2
406.913	175.9
407.374	167.9
407.835	161.1
408.296	167.6
408.757	177.1
409.218	187.2
409.679	175.5
410.14	180.1
410.601	176.1
411.062	183.2
411.522	189.7
411.983	190
412.444	177.4
412.905	184.7
413.366	180.9
413.826	196.3
414.287	215.7
414.748	271.3
415.208	252.7
415.669	219.9
416.13	209.1
416.59	203.2
417.051	215.2
417.511	219.6
417.972	234.1
418.432	248.6
418.893	283.4
419.353	250.7
419.814	199.8
420.274	187
420.734	180.8
421.195	200.8
421.655	195.2
422.115	191.2
422.576	196.8
423.036	192.9
423.496	204.8
423.956	220.2
424.416	230.4
424.876	272.6
425.336	269.1
425.797	267.3
426.257	253.6
426.717	234.6
427.177	237.6
427.637	230.1
428.097	236.7
428.556	250
429.016	276.5
429.476	270.2
429.936	275.9
430.396	280.1
430.856	289.4
431.315	317.8
431.775	362.4
432.235	388
432.694	350.6
433.154	369
433.614	401.3
434.073	337.2
434.533	293.4
434.993	266.2
435.452	289.5
435.912	301.6
436.371	288.4
436.83	290.1
437.29	273.7
437.749	252.8
438.209	250.5
438.668	277.7
439.127	293
439.587	263.5
440.046	252.1
440.505	261.5
440.964	284.2
441.424	331.5
441.883	318.2
442.342	255.9
442.801	221.1
443.26	223.2
443.719	225.3
444.178	222.6
444.637	205.5
445.096	225
445.555	227.7
446.014	225
446.473	227.5
446.932	236.6
447.391	225.5
447.849	223.8
448.308	217.7
448.767	225.6
449.226	237.9
449.685	242.9
450.143	255.8
450.602	241.7
451.061	225
451.519	230.4
451.978	232.3
452.436	241.7
452.895	247.3
453.353	257.6
453.812	245.8
454.27	243.1
454.729	234.3
455.187	241.4
455.646	250.7
456.104	244.4
456.562	257.5
457.021	277.7
457.479	263.8
457.937	269.9
458.395	262.5
458.854	250.9
459.312	259.9
459.77	285.4
460.228	252.2
460.686	243.4
461.144	250.6
461.602	250.5
462.06	248.7
462.518	258.8
462.976	257.9
463.434	261.3
463.892	266.4
464.35	277
464.808	291.3
465.266	269.2
465.724	262.8
466.181	278.6
466.639	278.3
467.097	285.4
467.555	298
468.012	303.9
468.47	314.6
468.928	331.7
469.385	345.3
469.843	356.6
470.3	343.7
470.758	365.4
471.215	388.3
471.673	416.3
472.13	405.9
472.588	427.5
473.045	377.1
473.503	379.4
473.96	400
474.417	402.7
474.875	440.2
475.332	482.1
475.789	468.9
476.246	477.9
476.704	490.3
477.161	509.4
477.618	530
478.075	561.3
478.532	621.8
478.989	702.5
479.446	823.1
479.903	782.4
480.36	820.2
480.817	871.1
481.274	984.6
481.731	1079.1
482.188	1184.7
482.645	1323
483.102	1451.2
483.558	1566.2
484.015	1635.1
484.472	1609.1
484.929	1550.3
485.385	1511.1
485.842	1468.5
486.299	1394.9
486.755	1316.1
487.212	1111.9
487.668	935
488.125	862.8
488.582	789.4
489.038	752.4
489.494	719.2
489.951	694.6
490.407	672
490.864	656.4
491.32	661
491.776	653
492.233	658.7
492.689	621.9
493.145	616.1
493.602	613.1
494.058	627.5
494.514	620.2
494.97	641
495.426	660.1
495.882	635.3
496.338	613.9
496.794	631.8
497.251	627
497.707	649
498.163	641.6
498.618	647.2
499.074	659.1
499.53	685.5
499.986	688.9
500.442	661.3
500.898	644
501.354	640
501.809	646.2
502.265	644.2
502.721	671.5
503.177	677.2
503.632	670.3
504.088	681.9
504.543	713.5
504.999	710.8
505.455	667.6
505.91	642.6
506.366	638.4
506.821	631.4
507.277	632.7
507.732	635.4
508.187	626.5
508.643	632.4
509.098	639.9
509.553	657.9
510.009	665.2
510.464	673.9
510.919	692.7
511.375	690.6
511.83	718
512.285	725.8
512.74	759.8
513.195	789
513.65	775.7
514.105	773.1
514.56	787.5
515.015	801.3
515.47	817.1
515.925	808.5
516.38	789.9
516.835	802.2
517.29	796.3
517.745	791.7
518.2	770.5
518.655	758.3
519.109	750.7
519.564	757.4
520.019	750.7
520.474	739
520.928	737.7
521.383	732
521.838	718.5
522.292	715.4
522.747	715.5
523.201	713.3
523.656	703.5
524.11	697
524.565	687.7
525.019	691.4
525.474	706.2
525.928	702
526.382	695.8
526.837	702.7
527.291	703.1
527.745	706.5
528.2	708.6
528.654	694.7
529.108	701.1
529.562	699
530.016	700.7
530.47	694.8
530.925	698.9
531.379	701.2
531.833	713.5
532.287	708.7
532.741	708.2
533.195	720.6
533.649	729.9
534.103	722.9
534.556	726.5
535.01	723.5
535.464	717.1
535.918	727.6
536.372	728.1
536.826	728.8
537.279	716.2
537.733	718
538.187	721.4
538.64	715.5
539.094	734.3
539.548	736.6
540.001	729
540.455	728.9
540.908	738.3
541.362	742.2
541.815	749.3
542.269	763.7
542.722	765.5
543.175	776.1
543.629	775.5
544.082	790.7
544.536	781.4
544.989	791.8
545.442	797.2
545.895	795.8
546.349	795
546.802	803.4
547.255	804.5
547.708	806.2
548.161	809.3
548.614	825.2
549.067	837.6
549.52	814
549.973	817.5
550.426	810.7
550.879	803.3
551.332	802.1
551.785	821.3
552.238	816.9
552.691	829.7
553.144	839.5
553.596	843.2
554.049	868
554.502	901.3
554.955	920.4
555.407	914.7
555.86	901.2
556.313	894.2
556.765	883.1
557.218	879.5
557.67	890.4
558.123	890.2
558.576	877.9
559.028	879.6
559.48	885.8
559.933	873.5
560.385	843.1
560.838	804.6
561.29	788.9
561.742	787.4
562.195	762.8
562.647	769.3
563.099	781.4
563.551	776.4
564.004	788.2
564.456	771.1
564.908	755.7
565.36	750.7
565.812	736
566.264	736.8
566.716	724.4
567.168	718.7
567.62	738.2
568.072	710.7
568.524	704.1
568.976	705.5
569.428	679.7
569.88	673.8
570.332	684.1
570.784	679.7
571.235	689.6
571.687	702.3
572.139	706.3
572.59	709.9
573.042	706.3
573.494	716.8
573.945	697.6
574.397	693.7
574.849	697.5
575.3	689.7
575.752	687.7
576.203	680.1
576.655	689.1
577.106	685.6
577.557	661.9
578.009	669.9
578.46	665.1
578.912	660.7
579.363	662.6
579.814	678.1
580.265	660.4
580.717	661.9
581.168	662.2
581.619	684
582.07	682.7
582.521	677.2
582.972	675.5
583.423	680.6
583.875	685.8
584.326	699.1
584.777	754.6
585.227	843.6
585.678	931.2
586.129	1017.9
586.58	1098.8
587.031	1184.4
587.482	1355.4
587.933	1541.5
588.384	1343.8
588.834	983.8
589.285	806.2
589.736	787.9
590.186	776.6
590.637	762.9
591.088	742.1
591.538	740
591.989	733.8
592.439	719.5
592.89	707.1
593.34	710.5
593.791	713.5
594.241	701.6
594.692	708.1
595.142	706.3
595.593	705
596.043	709.9
596.493	717.3
596.943	714.9
597.394	726.1
597.844	705.7
598.294	721.8
598.744	746.9
599.195	775.4
599.645	821.8
600.095	856.8
600.545	899.5
600.995	956
601.445	1023.4
601.895	1082
602.345	1129.3
602.795	1105
603.245	1065.1
603.695	1002.4
604.145	953.8
604.594	898.9
605.044	855.8
605.494	798.7
605.944	746.3
606.393	739.7
606.843	719.2
607.293	726.5
607.743	734.3
608.192	736.9
608.642	752.5
609.091	762.5
609.541	777
609.99	762.2
610.44	761.8
610.889	717.1
611.339	698.2
611.788	688.7
612.238	710
612.687	712.7
613.136	721.4
613.586	739.6
614.035	730
614.484	758.4
614.933	756.8
615.383	758.8
615.832	743.9
616.281	729.5
616.73	678.2
617.179	669.7
617.628	649.2
618.077	630.5
618.526	618.9
618.975	618.3
619.424	609.2
619.873	607.5
620.322	616.3
620.771	608.8
621.22	600.2
621.669	594.7
622.118	582.8
622.567	572.5
623.015	563.1
623.464	563.2
623.913	549
624.361	546.3
624.81	548.4
625.259	551.3
625.707	548.4
626.156	553.4
626.604	554.9
627.053	557.3
627.501	566.2
627.95	565.2
628.398	573.6
628.847	562.1
629.295	559.8
629.744	568.1
630.192	566.7
630.64	563.4
631.089	558.3
631.537	568.9
631.985	582
632.433	596.8
632.881	600.8
633.33	645.8
633.778	637.8
634.226	563.8
634.674	567.6
635.122	565.7
635.57	592.9
636.018	626.3
636.466	565.4
636.914	558.9
637.362	559.8
637.81	564
638.258	569.7
638.705	569.5
639.153	592.4
639.601	606.1
640.049	632.8
640.497	661.9
640.944	683.1
641.392	627.5
641.84	604
642.287	582
642.735	559.7
643.182	567.7
643.63	561.8
644.078	568.4
644.525	587.3
644.973	590.6
645.42	599.1
645.867	620.4
646.315	629
646.762	656
647.21	687.4
647.657	702.8
648.104	744.5
648.551	771.2
648.999	828.9
649.446	916
649.893	1003.8
650.34	1162.2
650.787	1375.9
651.234	1720.9
651.682	2248.5
652.129	3071.2
652.576	4422.6
653.023	6534.3
653.47	9000.1
653.917	11258.6
654.363	13093.5
654.81	14500.4
655.257	13782.8
655.704	9006.8
656.151	5324.2
656.598	3436.7
657.044	2435.3
657.491	1867.3
657.938	1504.8
658.385	1243.1
658.831	1072.9
659.278	956.2
659.724	851.4
660.171	779.1
660.618	714.8
661.064	673.3
661.511	667.3
661.957	644
662.404	637
662.85	647.9
663.296	620.4
663.743	552.9
664.189	528.9
664.635	524.1
665.082	515.9
665.528	522.6
665.974	514.1
666.42	498.4
666.867	491.7
667.313	483.6
667.759	473.2
668.205	471.9
668.651	479.1
669.097	476.5
669.543	499.4
669.989	473.1
670.435	450.6
670.881	437.8
671.327	443.8
671.773	460.2
672.219	472.4
672.665	533.3
673.11	571.3
673.556	613.4
674.002	655.5
674.448	644.6
674.893	535.1
675.339	471.5
675.785	431.1
676.23	408.9
676.676	387.3
677.122	372.1
677.567	370.2
678.013	365.9
678.458	355.3
678.904	352.2
679.349	347.4
679.794	352.5
680.24	346.9
680.685	341.3
681.131	342.6
681.576	347.6
682.021	346.3
682.466	337.6
682.912	334.6
683.357	343.4
683.802	369.8
684.247	397.6
684.692	441.7
685.137	474.3
685.583	528.5
686.028	535.2
686.473	503.7
686.918	436.7
687.363	403.1
687.807	385.6
688.252	359.5
688.697	338.9
689.142	325.7
689.587	320.2
690.032	325.2
690.477	328.9
690.921	341.6
691.366	373.8
691.811	389.3
692.255	419.2
692.7	447.6
693.145	482.1
693.589	665.6
694.034	1079
694.478	1492.6
694.923	1693.8
695.367	2209.8
695.812	1161
696.256	489.3
696.701	369.6
697.145	338.8
697.59	333.8
698.034	311.1
698.478	329.2
698.922	314
699.367	319.9
699.811	325.2
700.255	345
700.699	368.6
701.143	418.4
701.588	464.7
702.032	498.1
702.476	498
702.92	483.5
703.364	479.9
703.808	604.2
704.252	996.1
704.696	1400.1
705.14	1632.3
705.584	2074.5
706.027	1027.4
706.471	508
706.915	386.1
707.359	337.1
707.803	311.4
708.246	311
708.69	304.6
709.134	304.3
709.577	304.4
710.021	312.9
710.465	305.5
710.908	282.8
711.352	290.8
711.795	308.8
712.239	338.4
712.682	372.1
713.126	406.5
713.569	458.8
714.012	364
714.456	309.6
714.899	287
715.342	266.4
715.786	251.2
716.229	256.9
716.672	248.9
717.115	242.1
717.558	244
718.002	239.8
718.445	255.5
718.888	278.8
719.331	286.4
719.774	293.5
720.217	298.1
720.66	269.9
721.103	261.6
721.546	250.2
721.989	240.6
722.432	228.3
722.874	233.3
723.317	226.4
723.76	229.2
724.203	247.8
724.645	312.6
725.088	428.3
725.531	543.6
725.974	624.8
726.416	537.5
726.859	297.2
727.301	240.6
727.744	237.4
728.187	230.2
728.629	227
729.071	241.8
729.514	247.2
729.956	269.1
730.399	278.3
730.841	280.7
731.283	270.5
731.726	261.2
732.168	246.5
732.61	262.5
733.053	276.9
733.495	301.7
733.937	342.4
734.379	378.4
734.821	414.5
735.263	520
735.705	800.5
736.148	1492
736.59	2467.7
737.032	2987.1
737.474	2406.7
737.916	783.1
738.357	416.8
738.799	312
739.241	284.8
739.683	276.5
740.125	281.2
740.567	285.4
741.008	310.2
741.45	310.4
741.892	302.1
742.334	334.2
742.775	341.9
743.217	322.7
743.658	261.9
744.1	241.4
744.542	257.3
744.983	304.4
745.425	324.3
745.866	332.9
746.307	279.7
746.749	279.4
747.19	309.7
747.632	435.1
748.073	822.9
748.514	1762.6
748.956	2747.9
749.397	3421.7
749.838	2852.1
750.279	2884.8
750.72	1453
751.162	524.7
751.603	311.1
752.044	246.8
752.485	209.7
752.926	201
753.367	199.8
753.808	188.5
754.249	187.9
754.69	181.5
755.131	177.3
755.572	175
756.013	175.5
756.453	175.5
756.894	183.2
757.335	183.9
757.776	177
758.216	186.5
758.657	193
759.098	191.5
759.538	214.2
759.979	258.4
760.42	352.6
760.86	658
761.301	1715.2
761.741	4199.5
762.182	6223.4
762.622	4403.6
763.063	1265.2
763.503	520.3
763.943	338.7
764.384	341.4
764.824	401.6
765.264	442.7
765.705	305.2
766.145	203.6
766.585	186.2
767.025	173.5
767.465	176
767.906	231.8
768.346	320.8
768.786	339.6
769.226	263.7
769.666	303.9
770.106	583.5
770.546	1471.5
770.986	2563.5
771.426	2301.7
771.866	768.9
772.306	329
772.745	209.6
773.185	170.3
773.625	166.2
774.065	165.8
774.505	199.6
774.944	300.5
775.384	678.7
775.824	1247.3
776.263	1222.6
776.703	513.7
777.142	223.3
777.582	152.9
778.021	131.2
778.461	137.6
778.9	139
779.34	131.6
779.779	111.9
780.219	112.3
780.658	110
781.097	112
781.537	118.6
781.976	105.4
782.415	105.8
782.855	108.7
783.294	103.6
783.733	101.2
784.172	106.7
784.611	106.9
785.05	108.5
785.489	107.9
785.928	118.2
786.367	117.2
786.806	112.1
787.245	121.4
787.684	127.4
788.123	144.6
788.562	129.6
789.001	123.8
789.44	118.7
789.879	116.8
790.317	118.3
790.756	125.7
791.195	128
791.634	143.9
792.072	191.8
792.511	341.6
792.95	951.1
793.388	2056.5
793.827	1889.3
794.265	667.6
794.704	276.5
795.142	181.4
795.581	150.4
796.019	129.7
796.458	121.7
796.896	115.4
797.334	125.2
797.773	153.9
798.211	209.2
798.649	417.6
799.087	968
799.526	1533.4
799.964	1938.3
800.402	1960.4
800.84	730.5
801.278	290.5
801.716	182.1
802.154	143.4
802.592	137.1
803.03	133.3
803.468	130.4
803.906	141.4
804.344	143.6
804.782	138.2
805.22	123.1
805.658	127
806.096	140.8
806.533	146.6
806.971	173.4
807.409	211.7
807.847	293
808.284	617.9
808.722	1759.3
809.16	3165.2
809.597	2960.8
810.035	5171.6
810.472	5619.8
810.91	2016
811.347	763.6
811.785	384.7
812.222	246.5
812.66	192.2
813.097	164
813.535	139.7
813.972	128.6
814.409	121.3
814.846	108.9
815.284	109.2
815.721	98.1
816.158	108.4
816.595	122.7
817.032	184.2
817.47	195.2
817.907	169.1
818.344	147.9
818.781	108.8
819.218	99.1
819.655	115.6
820.092	171.1
820.529	200.3
820.966	174.5
821.403	127
821.839	109
822.276	105.7
822.713	113.6
823.15	128.7
823.587	108.1
824.023	139.2
824.46	279.6
824.897	847
825.333	1319.7
825.77	557.4
826.206	224.2
826.643	132.4
827.08	100.5
827.516	80.3
827.953	82.7
828.389	79.5
828.825	68.1
829.262	67.3
829.698	61.6
830.135	64
830.571	63.5
831.007	57.4
831.443	60.3
831.88	61.2
832.316	66.7
832.752	60.1
833.188	61.6
833.624	62.4
834.06	68.6
834.497	72.3
834.933	69.1
835.369	66.9
835.805	65.4
836.241	76.3
836.677	74.6
837.112	92.7
837.548	97.6
837.984	133.8
838.42	198.3
838.856	461.9
839.292	1438.6
839.727	2237
840.163	1040.1
840.599	867.4
841.034	1939.1
841.47	2052.3
841.906	748.4
842.341	314.1
842.777	221.3
843.212	316.8
843.648	317.1
844.083	152.5
844.519	93.9
844.954	73.1
845.39	54.5
845.825	58.9
846.261	58.8
846.696	56.1
847.131	53
847.566	53.9
848.002	57.6
848.437	53.2
848.872	55.2
849.307	61.7
849.742	79.7
850.177	164.3
850.613	528.9
851.048	850.7
851.483	371.5
851.918	150.5
852.353	82.3
852.788	60.8
853.223	53.7
853.657	48.6
854.092	44.7
854.527	42.1
854.962	43.5
855.397	41.5
855.832	45.8
856.266	38.7
856.701	34.9
857.136	32.9
857.57	37.6
858.005	49.2
858.44	62.7
858.874	50.1
859.309	48.8
859.743	38.2
860.178	43.4
860.612	34.8
861.047	51.1
861.481	65.9
861.915	67.6
862.35	46.7
862.784	36.1
863.218	39.9
863.653	31.7
864.087	46
864.521	55.3
864.955	68.2
865.39	150.9
865.824	164.2
866.258	117.7
866.692	155.4
867.126	167.5
867.56	104.6
867.994	51.2
868.428	39.5
868.862	45.7
869.296	56
869.73	51
870.164	52.2
870.598	44.8
871.031	35
871.465	31.1
871.899	34.9
872.333	20.7
872.766	26.7
873.2	19.3
873.634	29.8
874.067	19.5
874.501	20.9
874.935	32.5
875.368	29.6
875.802	25.5
876.235	27.3
876.669	28.8
877.102	24.9
877.535	27.1
877.969	24
878.402	25.8
878.836	16.1
879.269	22.6
879.702	22.9
880.135	20.3
880.569	20.6
881.002	24
881.435	18.9
881.868	18.7
882.301	25.7
882.734	18.1
883.167	23.5
883.601	22
884.034	22.1
884.467	14.1
884.899	17.4
885.332	20.3
885.765	18
886.198	20.4
886.631	22
887.064	20.8
887.497	23.4
887.929	23.2
888.362	17.6
888.795	15.7
889.228	18.7
889.66	20.1
890.093	18
890.526	19.1
890.958	14
891.391	12.2
891.823	21.2
892.256	15.8
892.688	15.9
893.121	15.7
893.553	23.1
893.985	25.5
894.418	22.8
894.85	15.8
895.282	14
895.715	16.6
896.147	17
896.579	17.1
897.011	12.9
897.444	21.6
897.876	17.4
898.308	15
898.74	20
899.172	14.2
899.604	21.4
900.036	24.2
900.468	15.8
900.9	8
901.332	17.9
901.764	9
902.196	11.7
902.628	15.8
903.06	17.2
903.491	29.1
903.923	26.3
904.355	19.9
904.787	25.6
905.218	20.8
905.65	18.2
906.082	7.2
906.513	14.6
906.945	17.9
907.376	11.7
907.808	29.3
908.239	15.2
908.671	20.3
909.102	23.8
909.534	27
909.965	47.9
910.397	86.3
910.828	299.2
911.259	457.4
911.691	206.8
912.122	105.4
912.553	48
912.984	37.8
913.415	24.5
913.847	25.1
914.278	13.2
914.709	13.6
915.14	20.6
915.571	14.4
916.002	14.3
916.433	21.8
916.864	23.7
917.295	13.8
917.726	23.9
918.157	8.9
918.587	27.8
919.018	19.1
919.449	21.2
919.88	23.3
920.311	26.9
920.741	42
921.172	163.4
921.603	146.3
922.033	66.7
922.464	45.1
922.895	21.9
923.325	17.9
923.756	15.6
924.186	17.2
924.617	23.1
925.047	41.7
925.478	59.8
925.908	46.3
926.338	35.3
926.769	22
927.199	25.3
927.629	14
928.06	16.4
928.49	20.3
928.92	16.2
929.35	7.5
929.78	12.2
930.21	7.5
930.641	7
931.071	9.9
931.501	1.6
931.931	8.6
932.361	11.3
932.791	5.7
933.221	5.7
933.651	5.6
934.08	18.6
934.51	28.6
934.94	8.9
935.37	5.4
935.8	11.5
936.229	11.4
936.659	10.7
937.089	-0.7
937.519	14.4
937.948	24
938.378	19.2
938.807	4.9
939.237	3.7
939.666	6.5
940.096	-1.8
940.525	-0.3
940.955	-0.3
941.384	2.8
941.814	-5.2
942.243	-1.4
942.672	10
943.102	-3.8
943.531	5.6
943.96	8.3
944.39	8.1
944.819	0.9
945.248	3.7
945.677	9
946.106	4
946.535	4.4
946.964	7.3
947.393	6.3
947.822	2.4
948.251	-2.9
948.68	5.9
949.109	6.7
949.538	4.1
949.967	3.2
950.396	3.1
950.825	7.2
951.254	6.6
951.682	-3.8
952.111	4.8
952.54	6.7
952.969	-0.3
953.397	-2
953.826	-0
954.254	-7.9
954.683	-0.7
955.112	-5
955.54	2.7
955.969	-6.5
956.397	2.4
956.826	-1.9
957.254	3.9
957.682	3.1
958.111	8.9
958.539	-3
958.967	7.8
959.396	3.3
959.824	4.2
960.252	6.9
960.68	2.7
961.109	-3.3
961.537	0.1
961.965	-1.8
962.393	6.5
962.821	-1.1
963.249	0.2
963.677	6.8
964.105	7.5
964.533	41.5
964.961	40.9
965.389	23.6
965.817	8.8
966.245	4.2
966.672	1.7
967.1	-3.1
967.528	4.4
967.956	1.5
968.383	-2
968.811	-2.6
969.239	-3.1
969.666	-1.4
970.094	-0.1
970.522	-0.1
970.949	1.6
971.377	-3.4
971.804	1.9
972.232	-0.5
972.659	1.4
973.087	-3.6
973.514	4.6
973.941	-6.2
974.369	6.2
974.796	3.3
975.223	3
975.651	2.4
976.078	4.5
976.505	1
976.932	1.6
977.359	15.8
977.786	13.2
978.214	2.6
978.641	-3.4
979.068	-1.2
979.495	-1.5
979.922	-5.2
980.349	-6
980.776	6
981.202	2.6
981.629	10.3
982.056	9.5
982.483	1.8
982.91	1.9
983.337	-5.3
983.763	4
984.19	-4
984.617	-3.6
985.043	-4.7
985.47	1.7
985.897	-1.1
986.323	-1.1
986.75	4.8
987.176	1.3
987.603	-5.6
988.029	-2.7
988.456	-6.8
988.882	4.8
989.308	-7.7
989.735	-0.9
990.161	-1.6
990.587	-4.4
991.014	1.3
991.44	6.3
991.866	2.8
992.292	-2.8
992.719	-3
993.145	1.5
993.571	-8.2
993.997	-2.8
994.423	-6.7
994.849	-4.1
995.275	5
995.701	0.4
996.127	-1.2
996.553	-2.7
996.979	-4.6
997.405	-0.5
997.83	-7.3
998.256	0.3
998.682	-0.6
999.108	-3.7
999.534	-4.6
999.959	1.1
1000.385	-0.6
1000.811	1.7
1001.236	-10.1
1001.662	-2.9
1002.087	-2
1002.513	4.5
1002.938	1.1
1003.364	-0.7
1003.789	2.2
1004.215	1
1004.64	4.7
1005.066	1.6
1005.491	-2.7
1005.916	-6.8
1006.342	-0.6
1006.767	-9.1
1007.192	10.1
1007.617	-1.1
1008.042	5.3
1008.468	-6.4
1008.893	-4.8
1009.318	-3
1009.743	1.8
1010.168	2.4
1010.593	3.4
1011.018	-6.9
1011.443	2.1
1011.868	8.9
1012.293	-6.3
1012.718	-5.3
1013.143	2.3
1013.567	-0.4
1013.992	-1.7
1014.417	-11.8
1014.842	1.2
1015.267	-1.3
1015.691	1.5
1016.116	7.4
1016.541	-1.5
1016.965	-1.1
1017.39	4.3
1017.814	-4.4
1018.239	0.5
1018.663	-7.6
1019.088	-5
1019.512	-0.4
1019.937	-6.2
1020.361	-8.9
1020.785	-10.7
1021.21	1.5
1021.634	-0.3
1022.058	4.2
1022.483	9.9
1022.907	-9.2
1023.331	-5
1023.755	0.1
1024.179	5.9
1024.604	-2.5
1025.028	-2.8
1025.452	-7.1
1025.876	-2.3
1026.3	0.2
1026.724	-9.2
1027.148	-0.7
1027.572	-8.4
1027.996	-0
1028.42	1
1028.843	1.6
1029.267	-6.2
1029.691	0.4
1030.115	-7
1030.539	-0.8
1030.962	-2.2
1031.386	-11
1031.81	1.1
1032.233	-0.9
1032.657	2.2
1033.08	-3.1
1033.504	2.4
1033.927	-5.7
1034.351	-1.1
1034.774	-1.5
1035.198	2
1035.621	-2.1
1036.045	-10.3
1036.468	2
1036.891	-11
1037.315	-7.8
1037.738	-11.6
1038.161	2
1038.584	-7.7
1039.008	-5
1039.431	-4.6
1039.854	0.6
1040.277	-5.4
1040.7	-14.2
1041.123	0.1
1041.546	-8.6
1041.969	-5.2
1042.392	-5.7
1042.815	-0.6
1043.238	-0.6
1043.661	5.2
1044.084	-5.9
1044.507	-8.6
1044.93	-4.1
1045.352	-5.3
1045.775	4.6
1046.198	1.6
1046.621	-0.6
1047.043	-5.8
1047.466	3.1
1047.889	-6.3
1048.311	-4.6
1048.734	-2.5
1049.156	-0.9
1049.579	-1.3
1050.001	-2.9
1050.424	3.1
1050.846	-3.5
1051.269	-6.4
1051.691	-7.3
1052.113	-5.3
1052.536	-2.4
1052.958	-2
1053.38	-3.3
1053.802	-9
1054.225	4.9
1054.647	-3.2
1055.069	-8.6
1055.491	2.4
1055.913	-9.1
1056.335	-1.9
1056.757	-7.1
1057.179	-2.2
1057.601	-4
1058.023	4.8
1058.445	-5.2
1058.867	-0.6
1059.289	-6.8
1059.711	-5.5
1060.133	-3.8
1060.555	1.4
1060.976	-4.7
1061.398	-4.4
1061.82	-5.7
1062.241	-11.9
1062.663	-7.7
1063.085	-5.2
1063.506	-2.8
1063.928	0.9
1064.35	1.2
1064.771	-6.7
1065.193	-1.1
1065.614	-5.9
1066.035	-4.1
1066.457	-4.1
1066.878	2.1
1067.3	-2.1
1067.721	-4
1068.142	-4
1068.564	-4.5
1068.985	-1.6
1069.406	2.9
1069.827	-0.8
1070.248	2.8
1070.67	-7.7
1071.091	-6.2
1071.512	-1.1
1071.933	-5.5
1072.354	-5.6
1072.775	-5.8
1073.196	-11.2
1073.617	-5.7
1074.038	-1.8
1074.459	-1.5
1074.88	-6.9
1075.3	3.7
1075.721	-6.5
1076.142	-1.2
1076.563	2.4
1076.983	-14.2
1077.404	-6.2
1077.825	-7
1078.246	-0.5
1078.666	-9.3
1079.087	-5.9
1079.507	-3.7
1079.928	-1.5
1080.348	1
1080.769	-4.6
1081.189	6
1081.61	-0.9
1082.03	-5.7
1082.451	0.6
1082.871	1.4
1083.291	-8.6
1083.711	-4.9
1084.132	-4.5
1084.552	-1.2
1084.972	2.3
1085.392	-8
1085.813	-11.6
1086.233	-16.2
1086.653	-6.5
1087.073	-0.4
1087.493	-6.1
1087.913	-0.4
1088.333	-6.8
1088.753	-6.7
1089.173	0.6
1089.593	-9
1090.013	-2.2
1090.433	-1.4
1090.852	2
1091.272	-5.3
1091.692	2.2
1092.112	-2.2
1092.531	-11.2
1092.951	-13
1093.371	-5.5
1093.79	5
1094.21	-3.7
1094.63	-5.2
1095.049	-5.3
1095.469	-1.1
1095.888	-3.3
1096.308	3.8
1096.727	6.5
1097.146	-5.1
1097.566	4.9
1097.985	-3.4
1098.405	-0.6
1098.824	-4.6
1099.243	-4.2
1099.662	0.8
1100.082	-9
1100.501	-1.3
1100.92	-7
1101.339	0.6
1101.758	-7.9
