Data from 20171114-ORNL-Ar_H_NY_Subt18_08-07-39-624.txt Node
Date: Tue Nov 14 08:07:39 EST 2017
User: Ender
Spectrometer: HR+D1039
Trigger mode: 0
Integration Time (sec): 2.730000E-2
Scans to average: 10
Electric dark correction enabled: true
Nonlinearity correction enabled: false
Boxcar width: 0
XAxis mode: Wavelengths
Number of Pixels in Spectrum: 2048
>>>>>Begin Spectral Data<<<<<
187.836	0.4
188.309	0.4
188.782	0.4
189.255	0.9
189.728	0.5
190.201	2.3
190.674	-2.3
191.147	4.9
191.619	-5.4
192.092	3.9
192.565	3.9
193.038	2.7
193.511	-4.3
193.984	0.2
194.456	-3.2
194.929	0.7
195.402	-1.7
195.874	-3.5
196.347	-1.7
196.82	-5.8
197.292	3.7
197.765	1
198.237	-1
198.71	0.6
199.182	-7.5
199.655	1.4
200.127	2.6
200.6	4.3
201.072	-3
201.544	-5.6
202.017	-4.9
202.489	6.9
202.961	-1.5
203.433	-0.4
203.906	-7.3
204.378	-4.3
204.85	-1.3
205.322	-8.9
205.794	-4.6
206.266	-1.8
206.739	-7.3
207.211	0.8
207.683	-9.2
208.155	-6.5
208.627	-7
209.099	-0.6
209.57	-13.8
210.042	-0.9
210.514	-5.2
210.986	-5.4
211.458	-8.3
211.93	-4.9
212.402	-1.2
212.873	-8
213.345	-10.8
213.817	-12.6
214.288	-4.8
214.76	-13.4
215.232	-3.5
215.703	-3.9
216.175	-5.3
216.646	-0.9
217.118	-5.8
217.589	-4.1
218.061	-6.8
218.532	-3.6
219.004	-5.3
219.475	-6.3
219.946	-1.5
220.418	-7.2
220.889	0.1
221.36	-0.5
221.832	-6.4
222.303	-6.4
222.774	-1.1
223.245	-9
223.717	-6.1
224.188	-5.3
224.659	-11.9
225.13	-11.7
225.601	1
226.072	1.3
226.543	0.9
227.014	0.6
227.485	-2.7
227.956	-7
228.427	-1.2
228.898	0.7
229.369	9.9
229.839	-4.6
230.31	-6.4
230.781	0.3
231.252	-8.4
231.722	-6.7
232.193	-6.6
232.664	-1
233.135	-3.4
233.605	2
234.076	-4.6
234.546	-0
235.017	1.4
235.487	-1.9
235.958	-4
236.428	0.6
236.899	-2.3
237.369	1.1
237.84	0.6
238.31	10.2
238.78	-4.4
239.251	-1.1
239.721	-1.8
240.191	-0.8
240.662	-3.8
241.132	-3.5
241.602	-0.8
242.072	1.2
242.542	9.1
243.013	-2.4
243.483	1.7
243.953	0.1
244.423	-1.9
244.893	-3
245.363	-0.7
245.833	2.4
246.303	-2.7
246.773	2
247.243	6.1
247.712	2.6
248.182	3.9
248.652	6.3
249.122	-5
249.592	8.1
250.061	17.2
250.531	26.3
251.001	14
251.471	13.3
251.94	19.8
252.41	3.6
252.879	1.8
253.349	10.5
253.818	4.9
254.288	-1.9
254.757	6
255.227	1.9
255.696	3.8
256.166	-1.3
256.635	0.5
257.105	6.3
257.574	8.6
258.043	3.5
258.513	13.4
258.982	12.1
259.451	5.1
259.92	8.2
260.389	7.7
260.859	17.7
261.328	14.2
261.797	18.8
262.266	5.2
262.735	7.7
263.204	9.6
263.673	-6.7
264.142	1.9
264.611	-4.2
265.08	1.3
265.549	-1
266.018	0.9
266.487	-4.7
266.955	-1.6
267.424	-7.7
267.893	4.2
268.362	-4.1
268.83	3.5
269.299	6.3
269.768	5.7
270.236	9
270.705	-0.3
271.174	2.3
271.642	3
272.111	7.7
272.579	14
273.048	16.3
273.516	23.3
273.985	19.9
274.453	17.4
274.922	17
275.39	9.9
275.858	-2.7
276.327	9.2
276.795	19.2
277.263	9.1
277.731	32.8
278.2	42.2
278.668	47.2
279.136	48.5
279.604	20.3
280.072	17.1
280.54	3.4
281.008	7.2
281.477	8.5
281.945	12
282.413	8.9
282.881	7.1
283.348	-0
283.816	10
284.284	16.6
284.752	18.4
285.22	8.9
285.688	11.7
286.156	14.2
286.623	39.3
287.091	44.3
287.559	22.7
288.026	14.6
288.494	12.6
288.962	2.6
289.429	6.3
289.897	17.6
290.364	9.8
290.832	13.9
291.3	12.6
291.767	17.2
292.234	20.2
292.702	4.7
293.169	8.7
293.637	18.5
294.104	21.9
294.571	3.1
295.039	6.4
295.506	8.4
295.973	15.6
296.44	11.2
296.908	10
297.375	14
297.842	18.5
298.309	13.6
298.776	4.4
299.243	21.4
299.71	8.7
300.177	17.7
300.644	14.9
301.111	11.3
301.578	18.5
302.045	10.8
302.512	16
302.979	19.1
303.446	24.7
303.913	10.7
304.379	14
304.846	25
305.313	21.4
305.78	15.8
306.246	17.9
306.713	18.9
307.18	22
307.646	22.7
308.113	24.7
308.579	18.6
309.046	22.9
309.512	23.5
309.979	10.9
310.445	22.6
310.912	13.2
311.378	29.1
311.845	22.1
312.311	22
312.777	27.7
313.244	20.8
313.71	35.8
314.176	22.5
314.642	22.6
315.109	23.7
315.575	27.4
316.041	34
316.507	28.2
316.973	31.7
317.439	34
317.905	31.2
318.371	29.5
318.837	29.5
319.303	23
319.769	29.4
320.235	23.7
320.701	27.6
321.167	29.4
321.633	28.9
322.099	29.7
322.564	38.7
323.03	33.5
323.496	34.1
323.962	34.4
324.427	26.6
324.893	36.5
325.359	25.7
325.824	30
326.29	26.6
326.755	30.5
327.221	31
327.686	33
328.152	38.9
328.617	38.4
329.083	43.6
329.548	44.3
330.014	38.3
330.479	32.2
330.944	36.6
331.41	31.1
331.875	39.4
332.34	34.2
332.805	39.1
333.271	41.7
333.736	33.5
334.201	42
334.666	42.6
335.131	51.2
335.596	43.6
336.061	48.4
336.526	31.9
336.991	43.5
337.456	44.6
337.921	41.7
338.386	35.9
338.851	39
339.316	43
339.781	40.9
340.246	39
340.711	44.1
341.175	41.9
341.64	44.9
342.105	44.3
342.569	49.9
343.034	46.4
343.499	49
343.963	45.4
344.428	55.2
344.893	51.6
345.357	52.7
345.822	58
346.286	55.2
346.751	61.2
347.215	61.2
347.679	63.2
348.144	80.3
348.608	70.1
349.073	61
349.537	65.6
350.001	64.1
350.465	72.8
350.93	71.3
351.394	74.3
351.858	65.3
352.322	80.7
352.786	77.9
353.25	91.6
353.715	95.9
354.179	83.3
354.643	108
355.107	107.7
355.571	88.6
356.035	93.3
356.498	104.8
356.962	111
357.426	115.2
357.89	102.4
358.354	77.4
358.818	72.9
359.281	71
359.745	65.3
360.209	64.1
360.673	61.1
361.136	68.2
361.6	83.9
362.064	71.4
362.527	75.8
362.991	85.3
363.454	74.6
363.918	69.2
364.381	70.5
364.845	68.4
365.308	77.7
365.772	76.6
366.235	73.2
366.698	66.8
367.162	74.4
367.625	82.4
368.088	76.1
368.552	78
369.015	80
369.478	86.2
369.941	93.3
370.404	81.9
370.867	96.8
371.331	96
371.794	99.4
372.257	92.6
372.72	106.4
373.183	101.2
373.646	95.9
374.109	101.2
374.572	95.3
375.035	99.5
375.497	102.5
375.96	98.6
376.423	92.5
376.886	104.5
377.349	95
377.811	92.2
378.274	99.6
378.737	98
379.199	93.8
379.662	99.5
380.125	111
380.587	106.8
381.05	120.4
381.512	121.5
381.975	126.7
382.437	114
382.9	121.8
383.362	120.5
383.825	128.4
384.287	138.7
384.75	128.6
385.212	131.6
385.674	131.5
386.136	132
386.599	111
387.061	120.8
387.523	124.2
387.985	126.1
388.447	134.7
388.91	129.3
389.372	147.3
389.834	140
390.296	140.7
390.758	148.6
391.22	165.8
391.682	204.1
392.144	289.6
392.606	218.3
393.068	155.9
393.529	158.8
393.991	148
394.453	145.4
394.915	147.4
395.377	183.4
395.838	204.2
396.3	145.4
396.762	132.4
397.224	128
397.685	112.8
398.147	118.4
398.608	117.1
399.07	113.8
399.531	120.8
399.993	132.2
400.454	142.5
400.916	135
401.377	131.7
401.839	142
402.3	142.7
402.762	158.3
403.223	164.5
403.684	155
404.145	153.7
404.607	151.3
405.068	149.4
405.529	158.1
405.99	177.2
406.451	162.6
406.913	160.9
407.374	148.5
407.835	153.9
408.296	155.9
408.757	160.6
409.218	169.8
409.679	170.3
410.14	166.6
410.601	172.2
411.062	170.6
411.522	180.4
411.983	180.2
412.444	166.6
412.905	168.9
413.366	173.8
413.826	183.1
414.287	198.2
414.748	242.3
415.208	224.9
415.669	198
416.13	197
416.59	189.3
417.051	193
417.511	205.2
417.972	219.8
418.432	228.6
418.893	269.8
419.353	236.3
419.814	182.4
420.274	163.1
420.734	167.3
421.195	183.9
421.655	187.6
422.115	186.2
422.576	188.1
423.036	187.8
423.496	195.2
423.956	204.9
424.416	217.1
424.876	249.8
425.336	241.3
425.797	243.8
426.257	237.3
426.717	231.7
427.177	217.7
427.637	215.6
428.097	223
428.556	231.8
429.016	258.3
429.476	244.3
429.936	264.9
430.396	266.9
430.856	279
431.315	303.3
431.775	339
432.235	363.7
432.694	331.1
433.154	347.7
433.614	373.3
434.073	317.2
434.533	269.5
434.993	255.9
435.452	267.4
435.912	284.3
436.371	272.4
436.83	268.4
437.29	250.9
437.749	236.3
438.209	233
438.668	262.7
439.127	269.9
439.587	252.9
440.046	233.7
440.505	241.1
440.964	265.8
441.424	303.3
441.883	298.7
442.342	246.4
442.801	221.2
443.26	208.7
443.719	206.9
444.178	216.5
444.637	205.1
445.096	206.1
445.555	214.6
446.014	208
446.473	215.6
446.932	215
447.391	209.2
447.849	215
448.308	201.9
448.767	210.9
449.226	220.5
449.685	226.1
450.143	235.4
450.602	218.5
451.061	211
451.519	215.9
451.978	220.9
452.436	221.2
452.895	222.2
453.353	245.3
453.812	235.1
454.27	226.6
454.729	227.2
455.187	228.7
455.646	235.4
456.104	238.7
456.562	243.1
457.021	256.9
457.479	250.9
457.937	259.6
458.395	256.6
458.854	234.7
459.312	238.7
459.77	262.3
460.228	248.1
460.686	234.6
461.144	236.3
461.602	230
462.06	231.1
462.518	245.7
462.976	243.5
463.434	240.2
463.892	246.9
464.35	262.9
464.808	275.4
465.266	256.4
465.724	259.2
466.181	262.1
466.639	255.4
467.097	269.8
467.555	280.9
468.012	290.6
468.47	296.7
468.928	316.5
469.385	324.6
469.843	329.3
470.3	332.5
470.758	347
471.215	370.4
471.673	389.2
472.13	390.2
472.588	397.2
473.045	356.5
473.503	361.6
473.96	376.6
474.417	390.4
474.875	416.9
475.332	455.5
475.789	441.5
476.246	435.8
476.704	468.5
477.161	479
477.618	492.9
478.075	530.3
478.532	582.7
478.989	670.7
479.446	772.8
479.903	744.1
480.36	771.9
480.817	834.3
481.274	933.8
481.731	1019.4
482.188	1118.4
482.645	1248.8
483.102	1342.6
483.558	1498.2
484.015	1547.1
484.472	1514.9
484.929	1481.1
485.385	1420
485.842	1387.4
486.299	1300.9
486.755	1249.2
487.212	1047.7
487.668	886.9
488.125	809.7
488.582	746
489.038	711.7
489.494	679.6
489.951	664.8
490.407	635.7
490.864	614.6
491.32	603.9
491.776	613.5
492.233	614.7
492.689	593.1
493.145	580.2
493.602	572.8
494.058	580.3
494.514	589.6
494.97	611.1
495.426	612.2
495.882	594.4
496.338	580.6
496.794	602.8
497.251	589.7
497.707	608
498.163	607.1
498.618	606.3
499.074	615.8
499.53	641.6
499.986	651.1
500.442	631.7
500.898	612.8
501.354	584
501.809	610
502.265	618.5
502.721	624.9
503.177	645
503.632	638.1
504.088	649.5
504.543	689
504.999	673.9
505.455	628.5
505.91	606.4
506.366	598.5
506.821	592
507.277	596.7
507.732	595.1
508.187	590.2
508.643	597.1
509.098	605.5
509.553	627.5
510.009	633.2
510.464	634
510.919	664.3
511.375	668.3
511.83	673.6
512.285	688.2
512.74	717.2
513.195	742.6
513.65	733.7
514.105	724.7
514.56	738.5
515.015	754.8
515.47	773.8
515.925	756.6
516.38	757.9
516.835	759.3
517.29	747.9
517.745	736.8
518.2	728.9
518.655	708.7
519.109	709.6
519.564	715.4
520.019	694.3
520.474	684.5
520.928	689.8
521.383	690.3
521.838	681.7
522.292	683.6
522.747	682.2
523.201	677
523.656	669.1
524.11	667.8
524.565	664.5
525.019	663.9
525.474	677
525.928	676.5
526.382	666.5
526.837	665.4
527.291	676.1
527.745	667.6
528.2	668.1
528.654	666.4
529.108	662.8
529.562	667.2
530.016	658.9
530.47	658.7
530.925	665.1
531.379	667.3
531.833	674.5
532.287	680.1
532.741	666.7
533.195	670.3
533.649	668.1
534.103	684.2
534.556	678.8
535.01	685.4
535.464	672.1
535.918	677.2
536.372	677.7
536.826	686.3
537.279	667.4
537.733	688.9
538.187	688.8
538.64	692
539.094	695.9
539.548	696.7
540.001	692.7
540.455	693.9
540.908	704.6
541.362	712.3
541.815	721.5
542.269	728.3
542.722	726.3
543.175	738.7
543.629	740
544.082	757
544.536	760.3
544.989	746.4
545.442	765.7
545.895	753.9
546.349	762.2
546.802	761.5
547.255	762.9
547.708	777.2
548.161	780.4
548.614	782.8
549.067	800.5
549.52	783
549.973	773.7
550.426	777.1
550.879	765.3
551.332	765.7
551.785	766.5
552.238	775.5
552.691	783.1
553.144	799.5
553.596	809.3
554.049	820.4
554.502	861.3
554.955	869
555.407	866.4
555.86	868.7
556.313	861.6
556.765	839.6
557.218	839.6
557.67	847.2
558.123	849.9
558.576	833.7
559.028	836.6
559.48	848.8
559.933	830.6
560.385	805.2
560.838	778.5
561.29	750.3
561.742	751.3
562.195	736.3
562.647	741.8
563.099	751
563.551	740.4
564.004	755.6
564.456	740.9
564.908	730.1
565.36	725.8
565.812	701.2
566.264	706
566.716	699.2
567.168	685.9
567.62	699
568.072	673.3
568.524	665.2
568.976	669.5
569.428	649.5
569.88	658.3
570.332	661.9
570.784	666.1
571.235	654.9
571.687	669.6
572.139	681.5
572.59	685.5
573.042	684.6
573.494	686.4
573.945	678.3
574.397	660.7
574.849	670.7
575.3	665.4
575.752	658.7
576.203	647.9
576.655	658.6
577.106	653.2
577.557	646.6
578.009	641
578.46	641.7
578.912	647.7
579.363	637.4
579.814	645.4
580.265	636.6
580.717	642.8
581.168	645.1
581.619	651.1
582.07	662.3
582.521	649.4
582.972	643.5
583.423	660.8
583.875	654.7
584.326	673.2
584.777	735.7
585.227	814.1
585.678	896.5
586.129	985.7
586.58	1054.2
587.031	1146.6
587.482	1291.8
587.933	1483.7
588.384	1282.8
588.834	948.3
589.285	778.8
589.736	763.8
590.186	749.5
590.637	738.5
591.088	725
591.538	708.3
591.989	713.1
592.439	692.9
592.89	695.1
593.34	688.9
593.791	686.1
594.241	684.9
594.692	681.7
595.142	681.1
595.593	675
596.043	690.1
596.493	697
596.943	689.3
597.394	703.4
597.844	686.7
598.294	702.5
598.744	725.7
599.195	749.6
599.645	795.7
600.095	821.6
600.545	879.5
600.995	945
601.445	999.9
601.895	1060.5
602.345	1109
602.795	1080.9
603.245	1026.5
603.695	983
604.145	923.3
604.594	884.8
605.044	835
605.494	768.8
605.944	725.9
606.393	721
606.843	708.9
607.293	716.8
607.743	711.7
608.192	726.4
608.642	744.9
609.091	749
609.541	740.6
609.99	740.8
610.44	743.7
610.889	700.8
611.339	685.9
611.788	660.9
612.238	697.6
612.687	689.7
613.136	694.4
613.586	713.3
614.035	715.6
614.484	744.6
614.933	744.8
615.383	733.7
615.832	728.6
616.281	705.6
616.73	664.1
617.179	655.9
617.628	633
618.077	618.2
618.526	610.5
618.975	603
619.424	592.1
619.873	587.7
620.322	602.6
620.771	591.5
621.22	589.3
621.669	589.1
622.118	574.8
622.567	555.3
623.015	552.8
623.464	552.3
623.913	541.9
624.361	527.1
624.81	541
625.259	541.7
625.707	541.5
626.156	540
626.604	551.5
627.053	545.5
627.501	540.1
627.95	547.9
628.398	559.8
628.847	558.6
629.295	559.5
629.744	564.1
630.192	546.4
630.64	552.5
631.089	549.6
631.537	571.6
631.985	580.4
632.433	589
632.881	591.8
633.33	644.2
633.778	620.6
634.226	547.5
634.674	563.8
635.122	564.2
635.57	582.1
636.018	614.5
636.466	568.1
636.914	531.4
637.362	547.5
637.81	564.2
638.258	564
638.705	565
639.153	594.4
639.601	591.7
640.049	627.3
640.497	649
640.944	676.7
641.392	615.7
641.84	596
642.287	571.4
642.735	554.9
643.182	554.4
643.63	557.4
644.078	562.7
644.525	576.5
644.973	580.4
645.42	585.6
645.867	604.7
646.315	623.1
646.762	642.7
647.21	681.5
647.657	700.2
648.104	730.9
648.551	757.2
648.999	827.9
649.446	897.6
649.893	990
650.34	1135.8
650.787	1364.3
651.234	1702.5
651.682	2222
652.129	3065.7
652.576	4463.8
653.023	6579.1
653.47	8974.7
653.917	11158
654.363	12871.1
654.81	14115.4
655.257	13468.7
655.704	8799.3
656.151	5185.4
656.598	3354.9
657.044	2361.2
657.491	1816.6
657.938	1461.1
658.385	1221.2
658.831	1052.3
659.278	948.7
659.724	827.6
660.171	764.8
660.618	700.3
661.064	666.2
661.511	646.6
661.957	641.7
662.404	628.7
662.85	632.3
663.296	602.7
663.743	542.7
664.189	531.7
664.635	526.6
665.082	511.8
665.528	519.6
665.974	510.5
666.42	503.8
666.867	490.8
667.313	486
667.759	472.8
668.205	464.5
668.651	467.9
669.097	481.8
669.543	491.1
669.989	462.8
670.435	438.6
670.881	433.6
671.327	440.7
671.773	457.8
672.219	481.9
672.665	532.5
673.11	568.9
673.556	601.8
674.002	652.2
674.448	638.4
674.893	529.6
675.339	461.4
675.785	429.7
676.23	407.2
676.676	380.5
677.122	366.4
677.567	358.2
678.013	364.9
678.458	351.7
678.904	349.7
679.349	336.8
679.794	337.7
680.24	334.7
680.685	343.8
681.131	339.6
681.576	342.4
682.021	339.8
682.466	341.3
682.912	341.7
683.357	339.7
683.802	365.2
684.247	408.7
684.692	441.6
685.137	478.3
685.583	525
686.028	538.5
686.473	497.5
686.918	429.2
687.363	401.1
687.807	383.9
688.252	361.3
688.697	347.8
689.142	336.3
689.587	330.4
690.032	318.2
690.477	331.3
690.921	344.3
691.366	376.7
691.811	392.5
692.255	417.7
692.7	446.3
693.145	485.9
693.589	683
694.034	1105.8
694.478	1491.7
694.923	1667.9
695.367	2174.7
695.812	1149.1
696.256	485.2
696.701	365
697.145	336.7
697.59	321.8
698.034	315.1
698.478	318.9
698.922	320.8
699.367	324.6
699.811	327.8
700.255	343.3
700.699	377.2
701.143	413
701.588	462.3
702.032	499
702.476	499.5
702.92	478.6
703.364	482.1
703.808	624.5
704.252	1022
704.696	1420.4
705.14	1612.1
705.584	2041
706.027	1027.3
706.471	504
706.915	379.8
707.359	343.1
707.803	305.9
708.246	303.8
708.69	302.4
709.134	301.1
709.577	308.8
710.021	306.2
710.465	297.5
710.908	296.2
711.352	288.6
711.795	302.3
712.239	342.9
712.682	371.1
713.126	404.3
713.569	448.4
714.012	357
714.456	310.3
714.899	282.6
715.342	265.5
715.786	253.6
716.229	248.5
716.672	255
717.115	246.6
717.558	240.6
718.002	236.9
718.445	258.1
718.888	276.6
719.331	284.3
719.774	307.9
720.217	300
720.66	274.8
721.103	264.3
721.546	243.7
721.989	241.8
722.432	228.9
722.874	229.2
723.317	228.7
723.76	238
724.203	257.4
724.645	312.3
725.088	442.7
725.531	553.8
725.974	634.5
726.416	535.6
726.859	293.7
727.301	238.1
727.744	230.5
728.187	230.1
728.629	230.3
729.071	237.2
729.514	250.6
729.956	270.9
730.399	269.5
730.841	277.1
731.283	270
731.726	255.9
732.168	248.3
732.61	257.1
733.053	279.5
733.495	309.1
733.937	350.9
734.379	384.3
734.821	415.5
735.263	536.4
735.705	831.8
736.148	1559.9
736.59	2499.8
737.032	2920
737.474	2383.5
737.916	780.2
738.357	418.9
738.799	319.4
739.241	288.8
739.683	272.8
740.125	281.8
740.567	292.8
741.008	304.3
741.45	302.1
741.892	313.6
742.334	335.5
742.775	344.4
743.217	328.6
743.658	260
744.1	244.7
744.542	249.2
744.983	299.3
745.425	328.7
745.866	330.4
746.307	279.1
746.749	276.9
747.19	308
747.632	451.2
748.073	875
748.514	1841.9
748.956	2748.8
749.397	3479.4
749.838	2890.2
750.279	2833.3
750.72	1443.1
751.162	531.4
751.603	307.9
752.044	245.3
752.485	201.6
752.926	197.3
753.367	194.4
753.808	187.5
754.249	175.6
754.69	179.4
755.131	179.7
755.572	175.6
756.013	177.7
756.453	180.5
756.894	183.8
757.335	183.5
757.776	195.2
758.216	191.7
758.657	190.8
759.098	200.7
759.538	216.8
759.979	261.6
760.42	374.9
760.86	698.1
761.301	1821.7
761.741	4331.9
762.182	6154.5
762.622	4310.5
763.063	1266.7
763.503	526
763.943	342.6
764.384	337.9
764.824	400.2
765.264	430.6
765.705	308.1
766.145	209.5
766.585	178.3
767.025	177
767.465	188.2
767.906	233.7
768.346	307.1
768.786	341.7
769.226	262.4
769.666	318.8
770.106	617.2
770.546	1529.3
770.986	2546.7
771.426	2264.9
771.866	764.9
772.306	324.5
772.745	201.3
773.185	163.7
773.625	163.8
774.065	163.2
774.505	196.1
774.944	315
775.384	697.1
775.824	1238.5
776.263	1203.9
776.703	516
777.142	222.9
777.582	154
778.021	138.3
778.461	133.7
778.9	134.3
779.34	129.9
779.779	112.6
780.219	112.4
780.658	110.5
781.097	103.7
781.537	109.6
781.976	112.2
782.415	111.6
782.855	103
783.294	105.3
783.733	105.4
784.172	105.1
784.611	99.7
785.05	106.6
785.489	111.4
785.928	124.4
786.367	121.8
786.806	116.4
787.245	124.4
787.684	134.2
788.123	144
788.562	128.2
789.001	121
789.44	125.1
789.879	112.8
790.317	110.6
790.756	129.2
791.195	122.3
791.634	149.7
792.072	204.2
792.511	357.1
792.95	1000.7
793.388	2069.3
793.827	1847.5
794.265	653.2
794.704	274.4
795.142	181.8
795.581	146.6
796.019	132.7
796.458	123.8
796.896	124
797.334	130.3
797.773	149.9
798.211	214.7
798.649	434.2
799.087	993.9
799.526	1553
799.964	1968.6
800.402	1931.3
800.84	729.3
801.278	284.4
801.716	182.1
802.154	145.9
802.592	140.2
803.03	137.2
803.468	129.4
803.906	142.1
804.344	145
804.782	132.2
805.22	131.7
805.658	123.5
806.096	139.2
806.533	147.8
806.971	165.3
807.409	209.3
807.847	304.1
808.284	652.5
808.722	1828
809.16	3176.1
809.597	3065.1
810.035	5295.6
810.472	5507.4
810.91	2001.5
811.347	754.1
811.785	383.2
812.222	246
812.66	187.9
813.097	154.5
813.535	135.8
813.972	129.2
814.409	117
814.846	108.2
815.284	104.1
815.721	98.5
816.158	105.2
816.595	121.6
817.032	175.1
817.47	193.2
817.907	162.8
818.344	149.9
818.781	110.9
819.218	104.8
819.655	120.6
820.092	182.9
820.529	203.3
820.966	177.1
821.403	129.9
821.839	112.6
822.276	102
822.713	118.2
823.15	131.3
823.587	113.6
824.023	142.4
824.46	302
824.897	874.9
825.333	1302.2
825.77	567.5
826.206	228.2
826.643	130.8
827.08	102.6
827.516	80.7
827.953	73.3
828.389	77.6
828.825	66
829.262	68.2
829.698	62.9
830.135	63.8
830.571	60.4
831.007	59.8
831.443	61.4
831.88	55
832.316	62.2
832.752	62.4
833.188	61.5
833.624	63.3
834.06	66.2
834.497	68.3
834.933	66
835.369	72.8
835.805	68
836.241	71
836.677	77.4
837.112	85.4
837.548	99.5
837.984	131.3
838.42	196.5
838.856	493.7
839.292	1490.3
839.727	2200.3
840.163	1031
840.599	914.5
841.034	1983.4
841.47	2034.1
841.906	754.3
842.341	327.2
842.777	229.8
843.212	322.3
843.648	312.8
844.083	145.9
844.519	97.5
844.954	73.1
845.39	60.5
845.825	57.2
846.261	52.7
846.696	53.3
847.131	53.7
847.566	61.2
848.002	56.2
848.437	54.9
848.872	60.1
849.307	63
849.742	87
850.177	179.1
850.613	541.6
851.048	839.5
851.483	370.2
851.918	147.2
852.353	87.4
852.788	59.9
853.223	52.9
853.657	57.1
854.092	49.3
854.527	45.1
854.962	45.8
855.397	45.3
855.832	52.2
856.266	38.7
856.701	42.9
857.136	36.1
857.57	40
858.005	47.8
858.44	55.7
858.874	41.6
859.309	50
859.743	41.7
860.178	41.1
860.612	42.1
861.047	42.2
861.481	58.1
861.915	69.3
862.35	47.8
862.784	35
863.218	39.3
863.653	33.1
864.087	50.4
864.521	56.6
864.955	72.1
865.39	153.7
865.824	172.2
866.258	105.9
866.692	157.7
867.126	170.4
867.56	104.6
867.994	58.3
868.428	40.4
868.862	46.8
869.296	49.1
869.73	54.5
870.164	45.1
870.598	51.5
871.031	39.2
871.465	30
871.899	27.2
872.333	27.6
872.766	26.1
873.2	26
873.634	30.9
874.067	20
874.501	22
874.935	35
875.368	30.9
875.802	29.1
876.235	25.9
876.669	24.2
877.102	25.4
877.535	28.8
877.969	21.3
878.402	28.3
878.836	15.2
879.269	24.7
879.702	22
880.135	19
880.569	22.2
881.002	27.9
881.435	22.6
881.868	17.1
882.301	18.1
882.734	9.9
883.167	25.8
883.601	17.4
884.034	19.8
884.467	10.6
884.899	17.6
885.332	20.9
885.765	12.8
886.198	17.7
886.631	21.7
887.064	22.1
887.497	25.8
887.929	22.1
888.362	15.1
888.795	16
889.228	18.1
889.66	19.5
890.093	17.8
890.526	20.8
890.958	15.5
891.391	15.7
891.823	27.6
892.256	10.8
892.688	11
893.121	18.5
893.553	15
893.985	26.1
894.418	17.1
894.85	14.1
895.282	14.2
895.715	16.7
896.147	11.3
896.579	23.9
897.011	14
897.444	20.6
897.876	15.5
898.308	17.8
898.74	14.1
899.172	6.2
899.604	20.6
900.036	23.2
900.468	13.8
900.9	10.2
901.332	17.9
901.764	19.8
902.196	18
902.628	17
903.06	14.8
903.491	30.3
903.923	21.6
904.355	24.2
904.787	26.3
905.218	26.1
905.65	22.4
906.082	8.9
906.513	15.5
906.945	11.8
907.376	13.1
907.808	15.4
908.239	25.2
908.671	21.6
909.102	21.4
909.534	23
909.965	48.3
910.397	90.8
910.828	301.1
911.259	458.7
911.691	213.6
912.122	104.9
912.553	45.7
912.984	32.9
913.415	29.1
913.847	29.4
914.278	12.2
914.709	18.8
915.14	20.8
915.571	14.9
916.002	10.3
916.433	23.4
916.864	20.2
917.295	11.5
917.726	18.8
918.157	17.2
918.587	24.6
919.018	25.2
919.449	18.2
919.88	26
920.311	28
920.741	48.4
921.172	169.7
921.603	146.1
922.033	70.1
922.464	50.6
922.895	25.2
923.325	18.3
923.756	16.5
924.186	16
924.617	26.7
925.047	49.2
925.478	56.3
925.908	41.8
926.338	21.9
926.769	16.5
927.199	23.6
927.629	10.6
928.06	22.1
928.49	17.7
928.92	12.9
929.35	12.8
929.78	9.7
930.21	9.7
930.641	11.2
931.071	9.4
931.501	0.1
931.931	14.8
932.361	11.8
932.791	4.9
933.221	6.3
933.651	2.1
934.08	15.5
934.51	35.1
934.94	10.4
935.37	11.6
935.8	10.5
936.229	7.9
936.659	11.5
937.089	1.8
937.519	12.9
937.948	22.6
938.378	17.1
938.807	4.3
939.237	8.2
939.666	8
940.096	-2.4
940.525	2
940.955	3.2
941.384	2
941.814	-8
942.243	-2
942.672	5.2
943.102	3.2
943.531	3.7
943.96	4.1
944.39	3
944.819	2.3
945.248	3.6
945.677	-0.4
946.106	7
946.535	3.9
946.964	-2.1
947.393	5
947.822	6.2
948.251	-7.1
948.68	5.9
949.109	6.5
949.538	9.8
949.967	-0.3
950.396	-1.3
950.825	2.6
951.254	3.9
951.682	-5.1
952.111	5.9
952.54	9.7
952.969	-2.7
953.397	2.2
953.826	0.7
954.254	-8.6
954.683	-2.1
955.112	-3
955.54	3.9
955.969	4.5
956.397	1
956.826	0.5
957.254	11.8
957.682	0.4
958.111	5
958.539	-1.8
958.967	1.4
959.396	0.4
959.824	1.8
960.252	4.7
960.68	-3.3
961.109	1.7
961.537	-3.8
961.965	1.7
962.393	4.2
962.821	-3.4
963.249	-4.6
963.677	5.2
964.105	3.5
964.533	46.7
964.961	35.7
965.389	18.9
965.817	7.2
966.245	4.3
966.672	-4.4
967.1	-6.1
967.528	3.6
967.956	1.5
968.383	-1.7
968.811	-6.2
969.239	-9.2
969.666	-7.1
970.094	2.9
970.522	-0.2
970.949	2.2
971.377	-2.3
971.804	7.1
972.232	3.8
972.659	-1.2
973.087	-3.2
973.514	-2.6
973.941	-8.7
974.369	3.6
974.796	1.2
975.223	-1.9
975.651	-1.1
976.078	-3.3
976.505	6.4
976.932	2.8
977.359	11
977.786	14.1
978.214	-3.6
978.641	-2.9
979.068	0.8
979.495	0.3
979.922	-0.5
980.349	-2.8
980.776	1.7
981.202	-9
981.629	-0.8
982.056	3.4
982.483	-6.9
982.91	3.1
983.337	-3.9
983.763	-2.7
984.19	-5.5
984.617	-4.7
985.043	-7.4
985.47	-0
985.897	-6.4
986.323	-4.6
986.75	-0.5
987.176	1.4
987.603	1.6
988.029	-0.9
988.456	-8.3
988.882	2.1
989.308	-7.1
989.735	-5.2
990.161	4
990.587	2.1
991.014	-2
991.44	8
991.866	-2.4
992.292	-11.4
992.719	-6.1
993.145	-0.3
993.571	-7.3
993.997	-4.5
994.423	1.5
994.849	-8.3
995.275	-1
995.701	-0.7
996.127	-4.3
996.553	-2.2
996.979	-5.9
997.405	-5.6
997.83	-4.7
998.256	-5.4
998.682	-3.9
999.108	-12.6
999.534	0.6
999.959	-2.1
1000.385	-2.8
1000.811	1.6
1001.236	-15.7
1001.662	-9
1002.087	-6.6
1002.513	4.1
1002.938	2.2
1003.364	-1.8
1003.789	-2.4
1004.215	4.8
1004.64	-5
1005.066	4.1
1005.491	-1.1
1005.916	-7
1006.342	-5.2
1006.767	-4.9
1007.192	3.6
1007.617	-2.7
1008.042	-0.6
1008.468	-7.7
1008.893	-3.7
1009.318	-3.4
1009.743	-3.8
1010.168	1.6
1010.593	-2.2
1011.018	-6
1011.443	-0.4
1011.868	2.3
1012.293	-2.8
1012.718	-4.9
1013.143	1.7
1013.567	0.1
1013.992	0.4
1014.417	-7
1014.842	-0.8
1015.267	-2.7
1015.691	-2.1
1016.116	9.3
1016.541	-2.7
1016.965	3.6
1017.39	-0.6
1017.814	-4.4
1018.239	-6.2
1018.663	-5.5
1019.088	-15.9
1019.512	-1
1019.937	-0.1
1020.361	-5.4
1020.785	-8.3
1021.21	-7.3
1021.634	-4.2
1022.058	1.4
1022.483	10.3
1022.907	-5.5
1023.331	-4
1023.755	-3.1
1024.179	2.6
1024.604	-4.6
1025.028	-4.2
1025.452	-4.5
1025.876	-2.2
1026.3	-3.6
1026.724	-10.2
1027.148	1.2
1027.572	-5.4
1027.996	-2
1028.42	0.9
1028.843	-0.3
1029.267	-10.5
1029.691	1.4
1030.115	-7.4
1030.539	-1.3
1030.962	-6.2
1031.386	-13.5
1031.81	1.4
1032.233	-2
1032.657	-2.1
1033.08	-2.6
1033.504	-1.4
1033.927	1.6
1034.351	3.1
1034.774	-1.8
1035.198	1.5
1035.621	-9.9
1036.045	-7
1036.468	4.1
1036.891	-3.2
1037.315	-9.5
1037.738	-11.8
1038.161	-1.6
1038.584	-6.6
1039.008	-12.3
1039.431	-3.1
1039.854	-1.6
1040.277	-9.4
1040.7	-9
1041.123	1.7
1041.546	-6.4
1041.969	-0.7
1042.392	-5.5
1042.815	-3
1043.238	-2.2
1043.661	-1.5
1044.084	-12.5
1044.507	-2
1044.93	-5.8
1045.352	-6.8
1045.775	-2.9
1046.198	-3.4
1046.621	-4.8
1047.043	0.3
1047.466	3.7
1047.889	-1.1
1048.311	-5.9
1048.734	-3.9
1049.156	-0.6
1049.579	-3.7
1050.001	-6.6
1050.424	-2.4
1050.846	-7.9
1051.269	-5.1
1051.691	-7
1052.113	-3.1
1052.536	-7.8
1052.958	0.3
1053.38	-2.9
1053.802	-6
1054.225	3.4
1054.647	-9.5
1055.069	-1
1055.491	-1.6
1055.913	-3.4
1056.335	0.3
1056.757	-6.1
1057.179	-12.7
1057.601	-4
1058.023	-5.7
1058.445	-5.9
1058.867	-5.8
1059.289	-3
1059.711	-8.5
1060.133	-1.7
1060.555	-5.5
1060.976	-11.2
1061.398	-10
1061.82	-2.6
1062.241	-2.4
1062.663	-7.7
1063.085	-2.9
1063.506	7
1063.928	-4
1064.35	-5.2
1064.771	-12.1
1065.193	-4.7
1065.614	-13.2
1066.035	-0.5
1066.457	-4.9
1066.878	0.9
1067.3	-2.7
1067.721	-10.2
1068.142	-3.1
1068.564	-5.8
1068.985	-1.5
1069.406	-8.7
1069.827	-10.3
1070.248	-0.3
1070.67	-7.4
1071.091	-5.5
1071.512	-7.1
1071.933	-7.6
1072.354	-9.2
1072.775	-4.4
1073.196	-10.6
1073.617	-5.6
1074.038	-10
1074.459	-0.9
1074.88	-8.5
1075.3	-0
1075.721	-6.2
1076.142	1
1076.563	-3.3
1076.983	-12.6
1077.404	-0.1
1077.825	-14.1
1078.246	-7.8
1078.666	-16.5
1079.087	-4.9
1079.507	-8.7
1079.928	-5.8
1080.348	1.2
1080.769	-5.8
1081.189	0.2
1081.61	-2
1082.03	-8.5
1082.451	-5.8
1082.871	-3.5
1083.291	-8.6
1083.711	-12.1
1084.132	-4
1084.552	-5.8
1084.972	-0.2
1085.392	-11.7
1085.813	-9.7
1086.233	-3
1086.653	-12.1
1087.073	0.1
1087.493	-8.3
1087.913	-10.7
1088.333	-6.4
1088.753	-4.8
1089.173	2.8
1089.593	-1.8
1090.013	2.5
1090.433	-5.1
1090.852	-1.3
1091.272	-1
1091.692	-7.1
1092.112	-7
1092.531	-9.3
1092.951	-14.1
1093.371	-1.8
1093.79	1.6
1094.21	-6.8
1094.63	-7
1095.049	-6.6
1095.469	-4.1
1095.888	-5.4
1096.308	-5.6
1096.727	3.3
1097.146	-6.4
1097.566	1.7
1097.985	-3.6
1098.405	-0.7
1098.824	-9.4
1099.243	-2.5
1099.662	-9
1100.082	-6.4
1100.501	-1.6
1100.92	-6.8
1101.339	-9.7
1101.758	-11
