Data from 20171114-ORNL-Ar_H_NY_Subt18_08-06-39-023.txt Node
Date: Tue Nov 14 08:06:39 EST 2017
User: Ender
Spectrometer: HR+D1039
Trigger mode: 0
Integration Time (sec): 2.730000E-2
Scans to average: 10
Electric dark correction enabled: true
Nonlinearity correction enabled: false
Boxcar width: 0
XAxis mode: Wavelengths
Number of Pixels in Spectrum: 2048
>>>>>Begin Spectral Data<<<<<
187.836	-1.05
188.309	-1.05
188.782	-1.05
189.255	7.85
189.728	-0.55
190.201	6.25
190.674	-1.85
191.147	4.25
191.619	-12.55
192.092	4.75
192.565	6.95
193.038	-1.45
193.511	-3.65
193.984	1.25
194.456	0.35
194.929	-4.25
195.402	-2.75
195.874	-3.55
196.347	2.25
196.82	-4.25
197.292	10.25
197.765	-3.55
198.237	-8.05
198.71	7.65
199.182	-3.45
199.655	4.55
200.127	3.05
200.6	3.25
201.072	-2.35
201.544	0.15
202.017	-3.75
202.489	8.35
202.961	-1.35
203.433	4.45
203.906	-2.65
204.378	-6.95
204.85	-0.75
205.322	-0.15
205.794	-3.75
206.266	-3.55
206.739	-5.25
207.211	0.95
207.683	-8.95
208.155	-1.15
208.627	-5.55
209.099	4.35
209.57	-11.75
210.042	0.05
210.514	-0.85
210.986	2.95
211.458	-4.55
211.93	-0.55
212.402	6.25
212.873	-5.85
213.345	-0.45
213.817	-9.25
214.288	-0.95
214.76	-13.65
215.232	1.75
215.703	-4.35
216.175	-6.35
216.646	0.95
217.118	-6.45
217.589	-5.75
218.061	-1.05
218.532	-4.75
219.004	-4.35
219.475	-2.95
219.946	-7.25
220.418	-9.45
220.889	5.65
221.36	2.15
221.832	-2.15
222.303	-5.85
222.774	2.45
223.245	-6.05
223.717	-4.05
224.188	-9.45
224.659	-0.75
225.13	-10.65
225.601	-1.55
226.072	-2.85
226.543	-4.25
227.014	0.75
227.485	-0.05
227.956	-6.15
228.427	2.95
228.898	3.45
229.369	4.95
229.839	-2.35
230.31	-2.75
230.781	0.65
231.252	-6.85
231.722	-10.75
232.193	-1.65
232.664	-0.45
233.135	1.85
233.605	-1.35
234.076	-8.85
234.546	-0.95
235.017	1.75
235.487	4.65
235.958	-5.55
236.428	-0.85
236.899	-0.75
237.369	-0.65
237.84	-6.05
238.31	1.45
238.78	-3.45
239.251	-5.25
239.721	-1.35
240.191	-4.45
240.662	0.65
241.132	-1.05
241.602	-0.65
242.072	-3.05
242.542	1.35
243.013	-0.85
243.483	3.45
243.953	0.55
244.423	-1.75
244.893	-1.75
245.363	6.95
245.833	-0.15
246.303	-3.45
246.773	0.95
247.243	3.45
247.712	1.75
248.182	9.85
248.652	-1.05
249.122	-0.55
249.592	3.25
250.061	4.05
250.531	12.65
251.001	4.35
251.471	6.35
251.94	3.75
252.41	2.95
252.879	-5.75
253.349	18.35
253.818	1.25
254.288	6.55
254.757	-2.55
255.227	-1.95
255.696	2.85
256.166	9.85
256.635	10.25
257.105	1.95
257.574	5.05
258.043	6.05
258.513	0.35
258.982	0.55
259.451	6.65
259.92	10.05
260.389	4.45
260.859	10.45
261.328	5.55
261.797	6.55
262.266	8.45
262.735	12.45
263.204	8.35
263.673	6.25
264.142	5.25
264.611	-1.25
265.08	2.55
265.549	2.25
266.018	2.35
266.487	-1.15
266.955	0.95
267.424	-0.85
267.893	7.75
268.362	4.95
268.83	8.45
269.299	14.15
269.768	3.55
270.236	6.85
270.705	2.35
271.174	12.25
271.642	4.05
272.111	1.45
272.579	8.15
273.048	2.65
273.516	7.55
273.985	9.85
274.453	12.05
274.922	20.25
275.39	12.55
275.858	-0.75
276.327	12.15
276.795	18.95
277.263	11.25
277.731	14.45
278.2	9.55
278.668	18.25
279.136	12.95
279.604	11.75
280.072	11.95
280.54	16.75
281.008	11.55
281.477	17.05
281.945	15.15
282.413	15.55
282.881	17.15
283.348	6.95
283.816	9.45
284.284	14.75
284.752	22.15
285.22	17.75
285.688	18.05
286.156	11.55
286.623	19.65
287.091	16.85
287.559	16.05
288.026	19.35
288.494	17.25
288.962	11.55
289.429	13.85
289.897	22.35
290.364	12.35
290.832	19.35
291.3	19.35
291.767	21.75
292.234	16.55
292.702	18.85
293.169	21.85
293.637	20.45
294.104	22.05
294.571	12.35
295.039	10.35
295.506	19.75
295.973	16.15
296.44	24.95
296.908	25.85
297.375	24.05
297.842	19.15
298.309	18.25
298.776	13.75
299.243	19.75
299.71	14.85
300.177	23.55
300.644	27.75
301.111	21.25
301.578	32.15
302.045	19.95
302.512	34.25
302.979	30.15
303.446	26.55
303.913	14.55
304.379	21.25
304.846	30.75
305.313	26.25
305.78	19.95
306.246	23.15
306.713	27.75
307.18	29.05
307.646	30.35
308.113	29.25
308.579	22.85
309.046	25.95
309.512	22.05
309.979	22.25
310.445	29.75
310.912	29.55
311.378	36.55
311.845	35.25
312.311	35.35
312.777	35.95
313.244	38.95
313.71	35.35
314.176	35.75
314.642	34.05
315.109	34.85
315.575	33.75
316.041	40.25
316.507	32.15
316.973	40.75
317.439	39.15
317.905	39.65
318.371	38.85
318.837	33.45
319.303	27.15
319.769	34.15
320.235	36.95
320.701	37.75
321.167	37.95
321.633	36.35
322.099	42.05
322.564	44.35
323.03	36.95
323.496	43.65
323.962	43.45
324.427	41.85
324.893	45.45
325.359	39.75
325.824	44.65
326.29	44.65
326.755	45.65
327.221	45.75
327.686	43.25
328.152	54.65
328.617	52.45
329.083	48.35
329.548	57.35
330.014	48.75
330.479	48.45
330.944	47.75
331.41	43.05
331.875	48.55
332.34	43.55
332.805	45.85
333.271	50.35
333.736	45.65
334.201	57.75
334.666	56.25
335.131	53.35
335.596	55.35
336.061	57.05
336.526	41.25
336.991	53.75
337.456	55.05
337.921	53.05
338.386	53.05
338.851	45.55
339.316	53.15
339.781	47.95
340.246	64.05
340.711	46.35
341.175	54.35
341.64	48.65
342.105	54.55
342.569	61.15
343.034	62.55
343.499	64.85
343.963	58.05
344.428	69.75
344.893	68.15
345.357	67.65
345.822	70.45
346.286	71.25
346.751	81.75
347.215	73.55
347.679	81.45
348.144	104.25
348.608	92.85
349.073	75.55
349.537	80.45
350.001	82.45
350.465	92.35
350.93	90.55
351.394	93.95
351.858	86.75
352.322	91.85
352.786	96.65
353.25	108.85
353.715	118.25
354.179	102.15
354.643	124.85
355.107	130.45
355.571	108.75
356.035	108.75
356.498	122.15
356.962	123.85
357.426	131.65
357.89	120.75
358.354	96.45
358.818	92.75
359.281	87.05
359.745	80.05
360.209	81.55
360.673	79.05
361.136	87.95
361.6	85.85
362.064	95.95
362.527	95.35
362.991	96.95
363.454	81.75
363.918	86.75
364.381	86.15
364.845	88.95
365.308	95.25
365.772	97.55
366.235	94.65
366.698	86.05
367.162	96.75
367.625	92.45
368.088	93.75
368.552	92.95
369.015	96.55
369.478	102.95
369.941	105.25
370.404	98.05
370.867	103.45
371.331	110.65
371.794	114.25
372.257	102.25
372.72	112.05
373.183	110.25
373.646	102.45
374.109	99.05
374.572	109.65
375.035	107.75
375.497	118.55
375.96	111.15
376.423	111.95
376.886	122.15
377.349	112.35
377.811	109.95
378.274	118.35
378.737	105.85
379.199	115.65
379.662	115.95
380.125	123.05
380.587	114.45
381.05	116.45
381.512	119.15
381.975	133.35
382.437	127.25
382.9	129.65
383.362	126.25
383.825	144.15
384.287	129.75
384.75	133.35
385.212	141.55
385.674	141.75
386.136	141.55
386.599	127.65
387.061	132.25
387.523	135.65
387.985	132.95
388.447	141.15
388.91	134.95
389.372	135.65
389.834	141.25
390.296	140.55
390.758	140.55
391.22	149.25
391.682	164.65
392.144	165.15
392.606	158.05
393.068	155.55
393.529	163.55
393.991	152.45
394.453	144.35
394.915	145.05
395.377	147.65
395.838	147.75
396.3	148.85
396.762	145.35
397.224	141.35
397.685	144.55
398.147	146.05
398.608	141.95
399.07	141.85
399.531	149.35
399.993	157.45
400.454	170.75
400.916	160.05
401.377	161.55
401.839	163.05
402.3	168.85
402.762	180.55
403.223	189.75
403.684	188.05
404.145	173.35
404.607	172.35
405.068	175.55
405.529	179.05
405.99	196.05
406.451	192.15
406.913	192.25
407.374	174.05
407.835	175.95
408.296	178.45
408.757	189.45
409.218	196.35
409.679	190.15
410.14	192.55
410.601	192.55
411.062	201.75
411.522	198.25
411.983	189.75
412.444	181.65
412.905	198.35
413.366	192.05
413.826	214.35
414.287	241.25
414.748	292.95
415.208	270.55
415.669	232.45
416.13	227.05
416.59	222.55
417.051	236.35
417.511	239.95
417.972	272.05
418.432	268.95
418.893	316.55
419.353	280.05
419.814	219.35
420.274	204.35
420.734	201.25
421.195	217.05
421.655	209.65
422.115	218.85
422.576	215.55
423.036	224.45
423.496	224.95
423.956	235.25
424.416	251.15
424.876	288.95
425.336	282.65
425.797	285.55
426.257	280.15
426.717	265.55
427.177	247.75
427.637	237.05
428.097	254.05
428.556	268.45
429.016	292.75
429.476	287.35
429.936	294.65
430.396	294.85
430.856	308.65
431.315	339.75
431.775	374.75
432.235	402.85
432.694	368.85
433.154	386.85
433.614	425.45
434.073	361.85
434.533	305.35
434.993	290.05
435.452	299.75
435.912	315.55
436.371	306.95
436.83	304.95
437.29	289.05
437.749	268.75
438.209	265.75
438.668	302.35
439.127	310.05
439.587	290.35
440.046	269.95
440.505	288.15
440.964	305.65
441.424	352.25
441.883	336.05
442.342	287.75
442.801	255.25
443.26	250.25
443.719	251.95
444.178	238.95
444.637	229.65
445.096	254.55
445.555	243.75
446.014	249.45
446.473	243.95
446.932	261.35
447.391	260.15
447.849	262.25
448.308	249.05
448.767	243.65
449.226	265.75
449.685	266.45
450.143	278.45
450.602	265.75
451.061	255.85
451.519	266.15
451.978	256.85
452.436	255.65
452.895	264.65
453.353	279.95
453.812	260.55
454.27	274.75
454.729	269.95
455.187	276.15
455.646	275.75
456.104	281.05
456.562	286.35
457.021	293.25
457.479	284.55
457.937	300.45
458.395	290.75
458.854	271.65
459.312	292.55
459.77	300.55
460.228	286.35
460.686	274.35
461.144	275.55
461.602	271.65
462.06	278.15
462.518	281.65
462.976	277.75
463.434	278.85
463.892	288.65
464.35	311.15
464.808	319.75
465.266	299.15
465.724	298.05
466.181	306.95
466.639	305.35
467.097	320.85
467.555	337.75
468.012	328.95
468.47	353.55
468.928	366.95
469.385	387.15
469.843	391.35
470.3	385.45
470.758	394.55
471.215	424.85
471.673	451.85
472.13	441.45
472.588	464.75
473.045	406.25
473.503	425.25
473.96	443.05
474.417	442.35
474.875	486.55
475.332	519.45
475.789	505.45
476.246	504.75
476.704	534.95
477.161	557.35
477.618	579.35
478.075	613.15
478.532	679.05
478.989	755.85
479.446	866.85
479.903	821.95
480.36	845.05
480.817	895.45
481.274	997.05
481.731	1088.95
482.188	1182.15
482.645	1326.35
483.102	1405.15
483.558	1525.45
484.015	1572.45
484.472	1533.25
484.929	1489.65
485.385	1451.55
485.842	1416.15
486.299	1370.55
486.755	1333.75
487.212	1135.05
487.668	982.85
488.125	908.15
488.582	829.85
489.038	802.85
489.494	762.25
489.951	746.25
490.407	726.25
490.864	696.15
491.32	703.35
491.776	697.05
492.233	714.45
492.689	675.45
493.145	667.65
493.602	660.85
494.058	670.65
494.514	664.55
494.97	692.25
495.426	713.05
495.882	686.85
496.338	670.25
496.794	685.65
497.251	675.45
497.707	691.55
498.163	693.45
498.618	701.55
499.074	703.45
499.53	736.35
499.986	737.05
500.442	701.15
500.898	677.55
501.354	675.45
501.809	682.75
502.265	681.95
502.721	690.55
503.177	694.45
503.632	699.55
504.088	704.95
504.543	734.65
504.999	745.55
505.455	726.05
505.91	696.45
506.366	707.35
506.821	694.15
507.277	691.05
507.732	694.45
508.187	697.75
508.643	700.45
509.098	702.95
509.553	721.45
510.009	734.05
510.464	749.25
510.919	757.25
511.375	771.35
511.83	784.05
512.285	799.15
512.74	834.15
513.195	845.95
513.65	842.65
514.105	848.55
514.56	853.35
515.015	869.25
515.47	877.05
515.925	853.65
516.38	869.45
516.835	873.65
517.29	853.05
517.745	858.75
518.2	841.15
518.655	826.45
519.109	812.25
519.564	812.45
520.019	813.05
520.474	801.05
520.928	800.15
521.383	786.65
521.838	791.85
522.292	776.75
522.747	778.25
523.201	779.35
523.656	768.15
524.11	762.75
524.565	762.95
525.019	761.15
525.474	766.15
525.928	769.25
526.382	761.15
526.837	777.35
527.291	767.55
527.745	768.85
528.2	776.05
528.654	763.35
529.108	753.65
529.562	760.55
530.016	758.55
530.47	762.95
530.925	743.75
531.379	762.25
531.833	769.15
532.287	769.65
532.741	764.55
533.195	774.55
533.649	790.95
534.103	790.25
534.556	765.45
535.01	779.05
535.464	775.15
535.918	787.75
536.372	784.75
536.826	785.75
537.279	770.65
537.733	777.65
538.187	775.25
538.64	771.55
539.094	797.45
539.548	805.75
540.001	796.15
540.455	792.25
540.908	810.65
541.362	810.95
541.815	816.35
542.269	835.75
542.722	834.65
543.175	848.65
543.629	847.45
544.082	865.75
544.536	870.95
544.989	865.65
545.442	871.05
545.895	877.45
546.349	867.35
546.802	875.55
547.255	875.85
547.708	881.15
548.161	899.45
548.614	906.45
549.067	910.35
549.52	894.95
549.973	892.55
550.426	899.75
550.879	879.05
551.332	881.15
551.785	897.05
552.238	898.05
552.691	903.75
553.144	914.05
553.596	929.55
554.049	951.35
554.502	975.45
554.955	1001.35
555.407	992.65
555.86	992.25
556.313	987.75
556.765	975.65
557.218	968.75
557.67	973.45
558.123	965.05
558.576	959.05
559.028	969.45
559.48	969.15
559.933	958.25
560.385	930.15
560.838	893.15
561.29	874.45
561.742	862.55
562.195	843.85
562.647	842.35
563.099	848.85
563.551	839.25
564.004	860.25
564.456	844.55
564.908	843.65
565.36	821.55
565.812	797.55
566.264	794.25
566.716	780.45
567.168	772.65
567.62	778.35
568.072	766.55
568.524	763.15
568.976	757.15
569.428	743.25
569.88	739.65
570.332	752.85
570.784	758.45
571.235	755.15
571.687	770.25
572.139	762.15
572.59	796.35
573.042	777.65
573.494	791.05
573.945	771.25
574.397	755.15
574.849	750.65
575.3	762.65
575.752	748.85
576.203	747.15
576.655	744.65
577.106	734.85
577.557	727.75
578.009	729.15
578.46	728.45
578.912	728.35
579.363	735.95
579.814	724.45
580.265	733.85
580.717	736.15
581.168	730.85
581.619	739.45
582.07	744.45
582.521	737.15
582.972	739.95
583.423	733.85
583.875	731.85
584.326	741.55
584.777	763.55
585.227	783.55
585.678	805.75
586.129	825.25
586.58	843.75
587.031	869.25
587.482	905.55
587.933	947.65
588.384	928.25
588.834	851.15
589.285	846.45
589.736	837.95
590.186	841.95
590.637	836.75
591.088	814.45
591.538	810.75
591.989	797.15
592.439	782.85
592.89	778.35
593.34	774.25
593.791	767.85
594.241	749.45
594.692	755.35
595.142	752.35
595.593	762.65
596.043	768.95
596.493	769.05
596.943	775.05
597.394	784.15
597.844	782.35
598.294	799.75
598.744	822.15
599.195	854.45
599.645	885.25
600.095	937.55
600.545	992.15
600.995	1054.05
601.445	1104.35
601.895	1190.25
602.345	1226.85
602.795	1199.55
603.245	1158.55
603.695	1105.65
604.145	1047.55
604.594	998.55
605.044	945.35
605.494	876.15
605.944	829.55
606.393	814.85
606.843	792.65
607.293	799.95
607.743	801.55
608.192	805.65
608.642	813.65
609.091	821.35
609.541	841.05
609.99	822.85
610.44	825.65
610.889	778.25
611.339	755.85
611.788	732.65
612.238	751.35
612.687	753.45
613.136	750.75
613.586	760.25
614.035	753.15
614.484	763.85
614.933	768.25
615.383	769.25
615.832	759.85
616.281	756.35
616.73	733.55
617.179	709.25
617.628	701.85
618.077	677.45
618.526	668.35
618.975	662.75
619.424	657.85
619.873	660.65
620.322	666.05
620.771	656.25
621.22	660.95
621.669	649.65
622.118	637.15
622.567	627.85
623.015	608.85
623.464	611.75
623.913	607.05
624.361	592.25
624.81	596.05
625.259	600.65
625.707	604.95
626.156	604.75
626.604	611.25
627.053	608.65
627.501	607.45
627.95	621.85
628.398	617.35
628.847	616.05
629.295	618.45
629.744	624.15
630.192	613.35
630.64	604.65
631.089	597.35
631.537	588.65
631.985	575.25
632.433	584.15
632.881	563.95
633.33	575.45
633.778	561.65
634.226	565.35
634.674	590.25
635.122	582.55
635.57	592.45
636.018	612.15
636.466	601.55
636.914	596.85
637.362	617.95
637.81	616.25
638.258	622.25
638.705	628.95
639.153	657.65
639.601	661.45
640.049	699.05
640.497	734.05
640.944	759.05
641.392	685.25
641.84	651.45
642.287	620.45
642.735	612.35
643.182	609.15
643.63	608.85
644.078	595.15
644.525	622.35
644.973	634.85
645.42	634.15
645.867	658.95
646.315	675.25
646.762	697.65
647.21	735.65
647.657	749.35
648.104	783.95
648.551	811.95
648.999	873.85
649.446	947.05
649.893	1029.05
650.34	1189.15
650.787	1409.65
651.234	1723.05
651.682	2204.15
652.129	2996.05
652.576	4232.95
653.023	6154.45
653.47	8368.95
653.917	10382.05
654.363	11980.75
654.81	13205.55
655.257	12470.45
655.704	8324.25
656.151	5010.25
656.598	3300.65
657.044	2385.55
657.491	1837.35
657.938	1488.65
658.385	1254.65
658.831	1112.45
659.278	988.65
659.724	884.25
660.171	814.35
660.618	756.35
661.064	719.05
661.511	700.25
661.957	688.35
662.404	670.45
662.85	682.15
663.296	657.45
663.743	601.85
664.189	567.95
664.635	566.45
665.082	560.55
665.528	561.35
665.974	552.65
666.42	549.65
666.867	533.25
667.313	522.85
667.759	491.25
668.205	486.35
668.651	489.45
669.097	483.05
669.543	471.75
669.989	478.35
670.435	478.45
670.881	482.45
671.327	486.75
671.773	512.45
672.219	526.15
672.665	589.95
673.11	630.55
673.556	684.25
674.002	717.55
674.448	697.05
674.893	604.75
675.339	520.85
675.785	477.55
676.23	460.15
676.676	426.05
677.122	416.35
677.567	396.95
678.013	399.45
678.458	387.75
678.904	386.05
679.349	384.55
679.794	385.75
680.24	375.85
680.685	381.75
681.131	381.15
681.576	377.15
682.021	380.75
682.466	375.55
682.912	379.45
683.357	383.65
683.802	409.85
684.247	446.15
684.692	491.65
685.137	545.45
685.583	580.75
686.028	601.45
686.473	558.35
686.918	483.85
687.363	448.65
687.807	426.55
688.252	388.05
688.697	381.95
689.142	365.45
689.587	359.15
690.032	354.65
690.477	370.65
690.921	388.65
691.366	417.45
691.811	439.05
692.255	469.75
692.7	496.95
693.145	534.05
693.589	748.55
694.034	1224.55
694.478	1671.45
694.923	1889.05
695.367	2458.75
695.812	1300.75
696.256	539.65
696.701	399.85
697.145	376.15
697.59	357.95
698.034	342.25
698.478	356.05
698.922	346.85
699.367	352.95
699.811	358.15
700.255	383.25
700.699	409.65
701.143	460.05
701.588	507.45
702.032	544.35
702.476	553.95
702.92	528.65
703.364	534.35
703.808	685.65
704.252	1132.55
704.696	1567.85
705.14	1794.05
705.584	2290.75
706.027	1142.85
706.471	562.75
706.915	431.55
707.359	379.35
707.803	348.65
708.246	335.75
708.69	338.95
709.134	334.65
709.577	334.85
710.021	349.85
710.465	326.55
710.908	322.15
711.352	317.75
711.795	336.55
712.239	371.05
712.682	415.15
713.126	433.75
713.569	484.85
714.012	384.75
714.456	326.95
714.899	310.85
715.342	290.55
715.786	272.65
716.229	275.95
716.672	277.15
717.115	267.35
717.558	268.75
718.002	270.85
718.445	284.95
718.888	313.65
719.331	307.85
719.774	328.05
720.217	318.65
720.66	309.55
721.103	288.35
721.546	275.45
721.989	271.75
722.432	246.15
722.874	259.05
723.317	251.85
723.76	258.85
724.203	274.55
724.645	344.75
725.088	480.65
725.531	613.25
725.974	690.55
726.416	586.15
726.859	337.25
727.301	268.25
727.744	261.05
728.187	245.65
728.629	255.85
729.071	263.85
729.514	276.35
729.956	294.55
730.399	307.05
730.841	313.75
731.283	290.75
731.726	285.65
732.168	290.05
732.61	289.95
733.053	309.65
733.495	336.25
733.937	374.65
734.379	425.85
734.821	474.95
735.263	583.75
735.705	897.65
736.148	1687.75
736.59	2783.45
737.032	3326.05
737.474	2695.75
737.916	872.55
738.357	471.45
738.799	354.95
739.241	326.35
739.683	312.65
740.125	310.95
740.567	322.65
741.008	347.55
741.45	333.45
741.892	338.65
742.334	389.65
742.775	399.75
743.217	374.75
743.658	296.85
744.1	280.35
744.542	291.95
744.983	342.65
745.425	380.15
745.866	378.65
746.307	295.05
746.749	292.05
747.19	351.45
747.632	487.95
748.073	954.15
748.514	2016.75
748.956	3082.65
749.397	3863.65
749.838	3218.05
750.279	3188.75
750.72	1616.15
751.162	599.65
751.603	360.15
752.044	277.55
752.485	233.55
752.926	227.35
753.367	214.05
753.808	212.95
754.249	202.75
754.69	198.35
755.131	198.55
755.572	191.65
756.013	189.85
756.453	197.65
756.894	203.25
757.335	210.45
757.776	211.75
758.216	209.65
758.657	213.35
759.098	210.65
759.538	244.35
759.979	284.05
760.42	406.95
760.86	764.65
761.301	1967.35
761.741	4776.95
762.182	6937.05
762.622	4902.85
763.063	1408.55
763.503	589.75
763.943	351.05
764.384	303.15
764.824	284.85
765.264	271.05
765.705	240.25
766.145	206.65
766.585	195.95
767.025	183.85
767.465	179.45
767.906	203.45
768.346	223.85
768.786	230.25
769.226	231.65
769.666	335.85
770.106	672.25
770.546	1669.25
770.986	2838.45
771.426	2549.55
771.866	861.25
772.306	354.35
772.745	224.35
773.185	183.45
773.625	173.35
774.065	160.55
774.505	181.75
774.944	222.15
775.384	391.35
775.824	639.05
776.263	623.35
776.703	301.35
777.142	174.05
777.582	148.75
778.021	131.45
778.461	129.85
778.9	134.15
779.34	139.95
779.779	124.25
780.219	118.05
780.658	106.35
781.097	129.05
781.537	121.25
781.976	114.45
782.415	115.85
782.855	112.05
783.294	111.25
783.733	115.85
784.172	120.85
784.611	111.65
785.05	123.25
785.489	117.45
785.928	127.85
786.367	129.35
786.806	123.55
787.245	137.65
787.684	146.35
788.123	162.25
788.562	143.25
789.001	134.25
789.44	133.75
789.879	126.65
790.317	126.45
790.756	136.75
791.195	142.45
791.634	152.25
792.072	222.55
792.511	397.45
792.95	1070.45
793.388	2272.95
793.827	2069.85
794.265	715.35
794.704	296.55
795.142	192.85
795.581	163.85
796.019	153.25
796.458	134.75
796.896	136.05
797.334	137.15
797.773	167.05
798.211	236.35
798.649	483.65
799.087	1090.15
799.526	1714.25
799.964	2158.65
800.402	2156.95
800.84	825.25
801.278	330.75
801.716	209.15
802.154	169.15
802.592	159.45
803.03	148.75
803.468	144.85
803.906	163.65
804.344	161.25
804.782	156.65
805.22	136.85
805.658	142.65
806.096	158.75
806.533	170.15
806.971	194.95
807.409	233.25
807.847	339.95
808.284	710.55
808.722	2008.55
809.16	3531.85
809.597	3372.25
810.035	5830.75
810.472	6229.45
810.91	2261.35
811.347	872.55
811.785	440.55
812.222	276.05
812.66	219.05
813.097	173.75
813.535	150.85
813.972	138.25
814.409	125.35
814.846	120.45
815.284	117.35
815.721	109.15
816.158	115.05
816.595	117.45
817.032	160.15
817.47	194.95
817.907	153.05
818.344	110.45
818.781	103.95
819.218	105.05
819.655	139.75
820.092	201.15
820.529	237.55
820.966	181.85
821.403	140.45
821.839	106.05
822.276	112.55
822.713	130.15
823.15	147.65
823.587	128.65
824.023	158.75
824.46	326.65
824.897	944.95
825.333	1462.15
825.77	634.75
826.206	251.55
826.643	151.65
827.08	115.05
827.516	90.25
827.953	83.25
828.389	89.75
828.825	80.65
829.262	77.15
829.698	64.35
830.135	73.25
830.571	68.35
831.007	67.55
831.443	71.05
831.88	65.05
832.316	69.05
832.752	65.95
833.188	74.85
833.624	72.45
834.06	76.35
834.497	72.35
834.933	79.45
835.369	82.35
835.805	76.55
836.241	85.25
836.677	88.75
837.112	96.35
837.548	116.65
837.984	155.85
838.42	218.75
838.856	537.15
839.292	1623.85
839.727	2464.65
840.163	1162.65
840.599	1004.15
841.034	2187.25
841.47	2271.95
841.906	839.45
842.341	355.35
842.777	210.25
843.212	218.15
843.648	203.45
844.083	121.45
844.519	86.75
844.954	80.55
845.39	65.05
845.825	67.95
846.261	64.15
846.696	59.85
847.131	56.45
847.566	64.55
848.002	59.95
848.437	59.35
848.872	64.85
849.307	62.75
849.742	96.05
850.177	196.95
850.613	606.55
851.048	947.05
851.483	414.35
851.918	165.45
852.353	88.25
852.788	62.25
853.223	59.05
853.657	54.05
854.092	48.75
854.527	45.35
854.962	46.55
855.397	55.05
855.832	47.45
856.266	51.55
856.701	46.75
857.136	42.35
857.57	45.15
858.005	49.35
858.44	64.25
858.874	52.95
859.309	60.25
859.743	44.75
860.178	54.45
860.612	44.45
861.047	64.35
861.481	75.65
861.915	80.85
862.35	54.05
862.784	29.95
863.218	44.05
863.653	41.85
864.087	48.35
864.521	59.75
864.955	75.95
865.39	170.35
865.824	185.05
866.258	125.15
866.692	180.45
867.126	203.05
867.56	117.35
867.994	62.95
868.428	45.45
868.862	57.25
869.296	61.85
869.73	66.25
870.164	61.85
870.598	55.25
871.031	42.85
871.465	32.75
871.899	35.25
872.333	26.25
872.766	29.05
873.2	26.75
873.634	35.35
874.067	28.05
874.501	33.95
874.935	49.35
875.368	36.05
875.802	31.45
876.235	27.65
876.669	29.55
877.102	27.55
877.535	27.85
877.969	24.15
878.402	24.65
878.836	20.85
879.269	27.45
879.702	31.55
880.135	23.55
880.569	25.85
881.002	32.55
881.435	20.45
881.868	20.75
882.301	20.15
882.734	18.25
883.167	28.15
883.601	23.25
884.034	21.45
884.467	15.85
884.899	21.85
885.332	22.25
885.765	18.55
886.198	14.75
886.631	23.05
887.064	19.65
887.497	23.35
887.929	26.85
888.362	25.25
888.795	17.85
889.228	15.55
889.66	22.05
890.093	22.75
890.526	23.75
890.958	17.95
891.391	19.05
891.823	23.35
892.256	16.85
892.688	18.45
893.121	16.95
893.553	20.35
893.985	22.85
894.418	24.25
894.85	14.05
895.282	21.25
895.715	20.25
896.147	21.85
896.579	21.05
897.011	20.95
897.444	21.55
897.876	15.35
898.308	19.25
898.74	15.75
899.172	13.35
899.604	22.65
900.036	20.35
900.468	16.05
900.9	17.45
901.332	19.95
901.764	16.85
902.196	22.35
902.628	19.05
903.06	22.55
903.491	34.65
903.923	30.65
904.355	23.75
904.787	26.35
905.218	24.45
905.65	25.25
906.082	17.85
906.513	18.75
906.945	19.95
907.376	16.85
907.808	20.75
908.239	22.85
908.671	21.75
909.102	27.65
909.534	27.55
909.965	50.45
910.397	102.25
910.828	333.85
911.259	509.75
911.691	227.85
912.122	112.45
912.553	56.35
912.984	39.65
913.415	24.05
913.847	28.55
914.278	16.75
914.709	12.85
915.14	18.55
915.571	18.05
916.002	15.25
916.433	21.45
916.864	22.15
917.295	17.15
917.726	25.05
918.157	20.45
918.587	28.35
919.018	26.35
919.449	28.55
919.88	27.35
920.311	34.95
920.741	50.65
921.172	175.55
921.603	165.35
922.033	80.15
922.464	53.45
922.895	25.85
923.325	19.75
923.756	17.35
924.186	17.35
924.617	21.55
925.047	22.15
925.478	27.45
925.908	28.35
926.338	14.35
926.769	17.55
927.199	16.85
927.629	7.25
928.06	13.15
928.49	15.55
928.92	14.05
929.35	16.55
929.78	13.95
930.21	7.65
930.641	13.55
931.071	13.55
931.501	8.55
931.931	5.55
932.361	9.65
932.791	4.05
933.221	7.85
933.651	10.75
934.08	22.85
934.51	35.45
934.94	18.65
935.37	11.15
935.8	11.35
936.229	12.75
936.659	13.75
937.089	4.55
937.519	16.65
937.948	31.75
938.378	22.25
938.807	9.65
939.237	7.15
939.666	13.45
940.096	1.15
940.525	4.25
940.955	6.35
941.384	3.05
941.814	3.55
942.243	0.65
942.672	7.55
943.102	-2.35
943.531	-3.75
943.96	10.45
944.39	3.95
944.819	4.55
945.248	8.45
945.677	5.65
946.106	7.85
946.535	2.75
946.964	6.45
947.393	9.25
947.822	-2.15
948.251	-0.85
948.68	6.75
949.109	11.75
949.538	6.05
949.967	0.25
950.396	2.45
950.825	0.25
951.254	0.05
951.682	-7.75
952.111	5.45
952.54	5.75
952.969	-2.05
953.397	-5.35
953.826	2.85
954.254	-0.95
954.683	4.55
955.112	1.65
955.54	-0.55
955.969	10.55
956.397	0.85
956.826	-4.35
957.254	8.05
957.682	7.25
958.111	9.75
958.539	4.85
958.967	6.75
959.396	0.55
959.824	5.05
960.252	8.75
960.68	-3.55
961.109	6.45
961.537	-6.35
961.965	7.45
962.393	5.05
962.821	-1.15
963.249	3.15
963.677	3.95
964.105	12.15
964.533	49.75
964.961	49.65
965.389	26.85
965.817	14.45
966.245	3.95
966.672	3.95
967.1	-5.55
967.528	1.15
967.956	-2.45
968.383	5.85
968.811	2.35
969.239	-0.75
969.666	-0.35
970.094	0.55
970.522	4.35
970.949	2.95
971.377	2.95
971.804	-1.55
972.232	-4.65
972.659	0.85
973.087	-8.25
973.514	1.35
973.941	-6.35
974.369	3.75
974.796	3.55
975.223	5.35
975.651	3.45
976.078	6.25
976.505	-0.95
976.932	5.75
977.359	21.15
977.786	14.75
978.214	4.05
978.641	1.35
979.068	1.45
979.495	-3.95
979.922	1.75
980.349	2.45
980.776	8.25
981.202	1.25
981.629	5.75
982.056	6.85
982.483	-1.65
982.91	0.45
983.337	-6.25
983.763	7.05
984.19	-9.15
984.617	-6.65
985.043	-5.45
985.47	6.05
985.897	-2.45
986.323	-5.55
986.75	4.55
987.176	2.85
987.603	2.85
988.029	3.15
988.456	0.15
988.882	8.35
989.308	-5.05
989.735	-0.55
990.161	-3.15
990.587	-7.15
991.014	5.55
991.44	10.55
991.866	3.35
992.292	-6.65
992.719	-3.85
993.145	4.55
993.571	-5.15
993.997	-2.05
994.423	3.75
994.849	-4.45
995.275	0.35
995.701	3.85
996.127	-3.25
996.553	6.55
996.979	-0.35
997.405	7.25
997.83	-4.15
998.256	-3.25
998.682	1.85
999.108	-1.05
999.534	-2.95
999.959	-2.75
1000.385	-0.05
1000.811	-1.05
1001.236	-4.95
1001.662	-7.75
1002.087	-6.55
1002.513	-1.65
1002.938	-0.45
1003.364	0.95
1003.789	3.15
1004.215	2.25
1004.64	-1.25
1005.066	10.85
1005.491	-1.25
1005.916	-0.85
1006.342	3.45
1006.767	-6.65
1007.192	5.55
1007.617	-0.05
1008.042	-0.25
1008.468	-7.55
1008.893	0.35
1009.318	2.45
1009.743	1.35
1010.168	5.45
1010.593	5.95
1011.018	-8.75
1011.443	1.35
1011.868	-1.65
1012.293	2.55
1012.718	-4.05
1013.143	3.75
1013.567	3.15
1013.992	-1.35
1014.417	-4.35
1014.842	3.75
1015.267	1.45
1015.691	1.55
1016.116	5.05
1016.541	0.25
1016.965	2.65
1017.39	1.45
1017.814	-2.45
1018.239	0.95
1018.663	-6.85
1019.088	-10.65
1019.512	2.35
1019.937	-0.65
1020.361	-0.45
1020.785	-7.85
1021.21	-0.25
1021.634	-1.75
1022.058	0.15
1022.483	3.75
1022.907	-3.85
1023.331	-6.05
1023.755	-3.35
1024.179	-1.95
1024.604	-9.25
1025.028	-1.35
1025.452	-1.35
1025.876	3.85
1026.3	-1.45
1026.724	-10.65
1027.148	-1.65
1027.572	-6.95
1027.996	-1.45
1028.42	-0.75
1028.843	-2.65
1029.267	1.55
1029.691	3.75
1030.115	-11.05
1030.539	-2.75
1030.962	-3.95
1031.386	-6.75
1031.81	0.75
1032.233	3.85
1032.657	1.15
1033.08	-1.25
1033.504	-1.25
1033.927	-5.65
1034.351	0.85
1034.774	-10.95
1035.198	-4.05
1035.621	-5.05
1036.045	-3.95
1036.468	2.55
1036.891	-14.55
1037.315	-2.55
1037.738	-7.85
1038.161	3.45
1038.584	-2.35
1039.008	-0.75
1039.431	-4.95
1039.854	-4.65
1040.277	-8.35
1040.7	-7.45
1041.123	-1.85
1041.546	-6.75
1041.969	-2.55
1042.392	-10.65
1042.815	-5.25
1043.238	-1.05
1043.661	2.55
1044.084	-1.65
1044.507	-4.25
1044.93	-1.45
1045.352	-10.45
1045.775	5.35
1046.198	5.75
1046.621	-2.25
1047.043	-2.35
1047.466	3.75
1047.889	1.45
1048.311	-6.65
1048.734	-0.85
1049.156	-2.65
1049.579	6.65
1050.001	-5.85
1050.424	4.85
1050.846	-1.75
1051.269	-5.85
1051.691	-5.05
1052.113	-6.35
1052.536	-0.35
1052.958	-5.85
1053.38	-0.45
1053.802	-6.55
1054.225	-1.85
1054.647	-6.75
1055.069	-1.75
1055.491	5.05
1055.913	-12.15
1056.335	-2.65
1056.757	-9.55
1057.179	-6.05
1057.601	-3.85
1058.023	-2.25
1058.445	-4.45
1058.867	-5.95
1059.289	-5.45
1059.711	-7.15
1060.133	-4.35
1060.555	-4.35
1060.976	-7.85
1061.398	-5.55
1061.82	-4.85
1062.241	-6.25
1062.663	-8.85
1063.085	2.75
1063.506	1.25
1063.928	2.65
1064.35	0.05
1064.771	-12.75
1065.193	-3.05
1065.614	-2.55
1066.035	-3.15
1066.457	-7.95
1066.878	5.45
1067.3	-8.55
1067.721	-0.75
1068.142	-6.15
1068.564	-2.05
1068.985	-3.35
1069.406	-4.25
1069.827	-3.95
1070.248	-1.65
1070.67	-6.55
1071.091	-4.25
1071.512	-7.25
1071.933	-8.85
1072.354	-3.45
1072.775	-9.45
1073.196	-6.35
1073.617	-1.45
1074.038	-5.55
1074.459	-4.35
1074.88	-5.45
1075.3	4.95
1075.721	-3.85
1076.142	0.25
1076.563	-2.05
1076.983	-6.55
1077.404	-3.85
1077.825	-6.95
1078.246	-0.45
1078.666	-12.35
1079.087	-3.15
1079.507	-11.35
1079.928	-0.45
1080.348	-1.75
1080.769	-3.45
1081.189	-2.25
1081.61	-7.05
1082.03	-4.05
1082.451	-4.05
1082.871	-0.45
1083.291	-4.35
1083.711	-3.55
1084.132	-4.45
1084.552	-7.35
1084.972	0.25
1085.392	-6.35
1085.813	-9.05
1086.233	-6.25
1086.653	1.95
1087.073	-5.55
1087.493	-6.35
1087.913	-5.45
1088.333	-2.35
1088.753	-4.75
1089.173	0.75
1089.593	-5.55
1090.013	-2.95
1090.433	5.15
1090.852	0.35
1091.272	-0.05
1091.692	-4.65
1092.112	-1.45
1092.531	-13.95
1092.951	-12.15
1093.371	-1.65
1093.79	-1.45
1094.21	-2.95
1094.63	-5.55
1095.049	-4.15
1095.469	0.25
1095.888	4.25
1096.308	3.15
1096.727	4.75
1097.146	-4.05
1097.566	-1.65
1097.985	-4.95
1098.405	-3.85
1098.824	-6.95
1099.243	-8.25
1099.662	-5.15
1100.082	-8.95
1100.501	1.15
1100.92	-5.85
1101.339	-8.15
1101.758	-5.25
