Data from 20171114-ORNL-Ar_H_NY_Subt18_08-06-45-302.txt Node
Date: Tue Nov 14 08:06:45 EST 2017
User: Ender
Spectrometer: HR+D1039
Trigger mode: 0
Integration Time (sec): 2.730000E-2
Scans to average: 10
Electric dark correction enabled: true
Nonlinearity correction enabled: false
Boxcar width: 0
XAxis mode: Wavelengths
Number of Pixels in Spectrum: 2048
>>>>>Begin Spectral Data<<<<<
187.836	-2.86
188.309	-2.86
188.782	-2.86
189.255	1.34
189.728	1.94
190.201	3.94
190.674	1.14
191.147	2.64
191.619	-9.26
192.092	-0.16
192.565	1.14
193.038	1.54
193.511	1.84
193.984	1.24
194.456	1.64
194.929	-3.26
195.402	-4.06
195.874	1.14
196.347	-8.16
196.82	-6.76
197.292	7.04
197.765	-3.46
198.237	-9.26
198.71	5.44
199.182	4.04
199.655	2.24
200.127	5.54
200.6	-0.06
201.072	1.04
201.544	-6.46
202.017	-7.06
202.489	5.94
202.961	-5.56
203.433	-5.46
203.906	-2.06
204.378	-4.26
204.85	-3.76
205.322	-13.26
205.794	-4.46
206.266	1.44
206.739	-8.66
207.211	-4.16
207.683	-11.86
208.155	-9.66
208.627	-7.06
209.099	-2.26
209.57	-9.66
210.042	-1.66
210.514	1.44
210.986	0.34
211.458	-5.86
211.93	-3.66
212.402	1.04
212.873	-7.76
213.345	-16.16
213.817	-15.26
214.288	-5.66
214.76	-9.76
215.232	-2.46
215.703	-2.16
216.175	-3.46
216.646	-13.46
217.118	-7.16
217.589	-4.26
218.061	-1.96
218.532	-3.26
219.004	3.84
219.475	-3.86
219.946	-3.36
220.418	-3.96
220.889	-0.96
221.36	1.54
221.832	-4.46
222.303	-8.86
222.774	-2.46
223.245	-6.36
223.717	-3.66
224.188	2.74
224.659	-6.46
225.13	-7.76
225.601	0.54
226.072	0.64
226.543	-3.06
227.014	-1.76
227.485	0.54
227.956	-7.86
228.427	-7.26
228.898	-0.76
229.369	2.14
229.839	-1.66
230.31	-1.96
230.781	-4.66
231.252	-3.46
231.722	-4.46
232.193	-7.26
232.664	0.24
233.135	0.74
233.605	-6.86
234.076	-7.76
234.546	-3.96
235.017	1.04
235.487	-4.66
235.958	-3.86
236.428	-7.06
236.899	-5.26
237.369	5.24
237.84	-5.46
238.31	3.14
238.78	1.24
239.251	2.24
239.721	-2.86
240.191	-3.36
240.662	-3.76
241.132	1.14
241.602	-4.56
242.072	-6.86
242.542	9.14
243.013	-5.16
243.483	1.34
243.953	-2.96
244.423	-3.56
244.893	-6.56
245.363	7.44
245.833	0.74
246.303	-4.16
246.773	5.74
247.243	-2.76
247.712	-4.06
248.182	-1.96
248.652	-0.46
249.122	-9.16
249.592	-3.06
250.061	4.54
250.531	13.24
251.001	-4.46
251.471	8.44
251.94	12.44
252.41	1.44
252.879	-3.16
253.349	11.44
253.818	9.24
254.288	6.94
254.757	-0.96
255.227	-2.36
255.696	1.44
256.166	1.24
256.635	8.14
257.105	6.44
257.574	0.84
258.043	1.94
258.513	-5.36
258.982	-0.76
259.451	-4.86
259.92	0.44
260.389	2.44
260.859	7.84
261.328	1.34
261.797	4.34
262.266	1.74
262.735	6.44
263.204	14.84
263.673	2.14
264.142	7.74
264.611	-1.56
265.08	-3.96
265.549	-1.76
266.018	2.24
266.487	-4.56
266.955	1.04
267.424	-3.16
267.893	6.94
268.362	-3.06
268.83	6.34
269.299	6.84
269.768	2.94
270.236	8.54
270.705	0.64
271.174	1.64
271.642	3.44
272.111	3.94
272.579	4.74
273.048	1.84
273.516	-3.16
273.985	6.24
274.453	8.74
274.922	11.04
275.39	7.34
275.858	-0.66
276.327	10.14
276.795	13.44
277.263	1.34
277.731	12.94
278.2	9.54
278.668	11.34
279.136	9.84
279.604	3.34
280.072	6.54
280.54	4.44
281.008	8.84
281.477	13.84
281.945	7.24
282.413	13.94
282.881	10.24
283.348	5.34
283.816	8.54
284.284	11.54
284.752	19.54
285.22	15.24
285.688	15.64
286.156	11.34
286.623	24.94
287.091	12.44
287.559	18.04
288.026	10.54
288.494	14.94
288.962	7.44
289.429	8.44
289.897	16.74
290.364	11.54
290.832	17.24
291.3	17.04
291.767	19.14
292.234	13.04
292.702	14.64
293.169	13.64
293.637	27.84
294.104	19.04
294.571	10.84
295.039	10.24
295.506	15.84
295.973	17.44
296.44	11.64
296.908	18.24
297.375	16.04
297.842	12.24
298.309	15.44
298.776	14.64
299.243	15.84
299.71	14.44
300.177	17.84
300.644	19.64
301.111	15.94
301.578	21.74
302.045	11.34
302.512	26.24
302.979	21.34
303.446	19.44
303.913	15.94
304.379	12.74
304.846	29.34
305.313	25.04
305.78	18.64
306.246	24.84
306.713	29.64
307.18	25.04
307.646	25.44
308.113	22.04
308.579	22.14
309.046	29.54
309.512	23.84
309.979	18.14
310.445	27.34
310.912	27.94
311.378	30.14
311.845	29.54
312.311	31.54
312.777	31.54
313.244	32.74
313.71	40.84
314.176	31.14
314.642	32.74
315.109	27.24
315.575	36.54
316.041	35.14
316.507	26.54
316.973	34.34
317.439	27.64
317.905	35.34
318.371	30.24
318.837	36.24
319.303	35.94
319.769	28.24
320.235	32.14
320.701	33.94
321.167	35.04
321.633	30.54
322.099	37.64
322.564	38.14
323.03	37.04
323.496	36.74
323.962	42.24
324.427	32.84
324.893	40.74
325.359	33.94
325.824	38.44
326.29	34.34
326.755	35.14
327.221	42.24
327.686	41.44
328.152	46.64
328.617	41.24
329.083	45.54
329.548	45.04
330.014	48.34
330.479	38.04
330.944	41.74
331.41	38.64
331.875	39.14
332.34	38.94
332.805	44.04
333.271	37.94
333.736	39.44
334.201	47.34
334.666	47.84
335.131	44.94
335.596	51.04
336.061	49.24
336.526	36.64
336.991	43.44
337.456	57.44
337.921	50.94
338.386	40.84
338.851	45.64
339.316	45.44
339.781	46.74
340.246	52.64
340.711	45.34
341.175	46.94
341.64	49.94
342.105	54.54
342.569	50.74
343.034	59.34
343.499	59.84
343.963	44.74
344.428	64.14
344.893	61.64
345.357	62.24
345.822	57.34
346.286	77.94
346.751	76.74
347.215	68.94
347.679	76.24
348.144	88.94
348.608	78.04
349.073	67.54
349.537	75.24
350.001	77.84
350.465	88.14
350.93	77.04
351.394	83.14
351.858	67.04
352.322	90.84
352.786	85.54
353.25	100.44
353.715	106.14
354.179	100.84
354.643	113.34
355.107	115.14
355.571	108.14
356.035	102.34
356.498	105.64
356.962	111.54
357.426	120.54
357.89	115.34
358.354	89.44
358.818	77.94
359.281	79.04
359.745	79.04
360.209	80.24
360.673	73.84
361.136	77.94
361.6	79.94
362.064	84.44
362.527	83.24
362.991	92.34
363.454	83.74
363.918	73.84
364.381	82.54
364.845	83.84
365.308	92.84
365.772	87.64
366.235	86.64
366.698	82.24
367.162	78.34
367.625	87.34
368.088	87.24
368.552	89.44
369.015	85.54
369.478	93.74
369.941	100.44
370.404	95.44
370.867	98.04
371.331	100.24
371.794	102.94
372.257	102.24
372.72	105.94
373.183	103.94
373.646	91.24
374.109	100.14
374.572	102.64
375.035	100.74
375.497	108.44
375.96	103.74
376.423	103.94
376.886	114.04
377.349	114.54
377.811	100.94
378.274	105.74
378.737	106.44
379.199	114.54
379.662	112.64
380.125	115.44
380.587	113.04
381.05	111.04
381.512	117.34
381.975	124.74
382.437	118.64
382.9	118.04
383.362	127.84
383.825	133.84
384.287	128.74
384.75	126.74
385.212	129.54
385.674	134.64
386.136	128.94
386.599	117.44
387.061	125.84
387.523	122.94
387.985	126.14
388.447	132.54
388.91	128.84
389.372	128.14
389.834	136.34
390.296	134.94
390.758	131.04
391.22	133.54
391.682	150.34
392.144	151.54
392.606	147.34
393.068	142.74
393.529	161.14
393.991	143.34
394.453	139.84
394.915	137.94
395.377	134.44
395.838	137.04
396.3	138.24
396.762	142.14
397.224	139.54
397.685	137.94
398.147	138.04
398.608	143.84
399.07	144.84
399.531	136.44
399.993	147.44
400.454	160.64
400.916	155.34
401.377	156.04
401.839	151.54
402.3	156.74
402.762	168.34
403.223	187.54
403.684	176.64
404.145	172.64
404.607	169.34
405.068	169.04
405.529	174.24
405.99	189.94
406.451	185.04
406.913	179.34
407.374	175.04
407.835	161.64
408.296	168.24
408.757	179.34
409.218	194.74
409.679	184.84
410.14	180.14
410.601	177.44
411.062	187.04
411.522	191.44
411.983	183.84
412.444	183.54
412.905	190.04
413.366	190.04
413.826	202.44
414.287	236.54
414.748	281.64
415.208	264.34
415.669	229.04
416.13	218.44
416.59	219.04
417.051	226.24
417.511	228.94
417.972	251.64
418.432	266.54
418.893	305.34
419.353	268.34
419.814	217.24
420.274	189.94
420.734	200.14
421.195	203.04
421.655	196.24
422.115	204.74
422.576	210.14
423.036	212.04
423.496	218.24
423.956	230.04
424.416	249.04
424.876	285.64
425.336	272.34
425.797	281.24
426.257	266.04
426.717	252.54
427.177	245.14
427.637	238.24
428.097	246.14
428.556	251.24
429.016	273.84
429.476	275.24
429.936	292.64
430.396	286.14
430.856	300.84
431.315	320.64
431.775	361.74
432.235	383.74
432.694	362.54
433.154	369.74
433.614	406.94
434.073	349.44
434.533	295.74
434.993	282.54
435.452	288.34
435.912	303.74
436.371	290.64
436.83	294.54
437.29	279.24
437.749	263.04
438.209	258.44
438.668	286.74
439.127	300.94
439.587	277.24
440.046	265.04
440.505	278.04
440.964	291.94
441.424	335.74
441.883	328.54
442.342	276.34
442.801	236.04
443.26	232.14
443.719	236.84
444.178	238.34
444.637	236.44
445.096	233.94
445.555	241.14
446.014	241.44
446.473	243.34
446.932	243.44
447.391	239.54
447.849	250.44
448.308	239.54
448.767	238.94
449.226	253.24
449.685	258.74
450.143	269.44
450.602	253.84
451.061	250.74
451.519	246.04
451.978	255.44
452.436	248.44
452.895	263.74
453.353	272.44
453.812	262.34
454.27	257.44
454.729	258.54
455.187	264.24
455.646	264.14
456.104	265.84
456.562	280.24
457.021	287.64
457.479	274.74
457.937	297.94
458.395	284.24
458.854	273.74
459.312	272.84
459.77	296.44
460.228	271.94
460.686	267.14
461.144	272.54
461.602	262.34
462.06	264.04
462.518	272.44
462.976	275.14
463.434	284.34
463.892	289.44
464.35	298.84
464.808	302.74
465.266	285.64
465.724	291.84
466.181	296.14
466.639	288.94
467.097	303.24
467.555	318.24
468.012	334.84
468.47	345.64
468.928	365.94
469.385	363.74
469.843	377.54
470.3	373.64
470.758	386.74
471.215	407.74
471.673	444.34
472.13	435.24
472.588	452.24
473.045	398.64
473.503	410.94
473.96	421.94
474.417	433.94
474.875	451.34
475.332	510.04
475.789	489.94
476.246	499.84
476.704	510.24
477.161	539.24
477.618	560.24
478.075	592.34
478.532	642.94
478.989	715.54
479.446	830.14
479.903	791.64
480.36	824.04
480.817	871.84
481.274	964.44
481.731	1056.74
482.188	1144.54
482.645	1269.04
483.102	1360.74
483.558	1496.64
484.015	1517.34
484.472	1488.04
484.929	1453.74
485.385	1410.14
485.842	1379.84
486.299	1325.34
486.755	1291.84
487.212	1103.84
487.668	944.54
488.125	878.54
488.582	804.34
489.038	779.84
489.494	740.74
489.951	716.14
490.407	701.54
490.864	679.94
491.32	679.44
491.776	675.44
492.233	685.84
492.689	653.84
493.145	646.84
493.602	633.54
494.058	647.34
494.514	663.24
494.97	685.94
495.426	691.34
495.882	661.14
496.338	652.84
496.794	669.94
497.251	658.24
497.707	670.94
498.163	675.34
498.618	686.24
499.074	684.64
499.53	710.44
499.986	712.04
500.442	682.54
500.898	666.74
501.354	662.44
501.809	664.34
502.265	663.64
502.721	672.34
503.177	680.14
503.632	689.84
504.088	684.14
504.543	711.44
504.999	731.54
505.455	703.34
505.91	681.94
506.366	686.64
506.821	670.94
507.277	681.54
507.732	673.34
508.187	681.14
508.643	685.94
509.098	690.44
509.553	699.34
510.009	717.14
510.464	719.24
510.919	735.34
511.375	746.94
511.83	762.54
512.285	774.64
512.74	805.04
513.195	834.24
513.65	829.94
514.105	811.34
514.56	820.04
515.015	837.34
515.47	863.44
515.925	831.74
516.38	828.24
516.835	837.64
517.29	826.34
517.745	831.64
518.2	822.64
518.655	804.04
519.109	793.14
519.564	788.74
520.019	779.24
520.474	769.44
520.928	768.74
521.383	758.54
521.838	754.44
522.292	763.94
522.747	767.64
523.201	767.74
523.656	742.84
524.11	750.74
524.565	745.34
525.019	737.24
525.474	753.54
525.928	742.54
526.382	744.14
526.837	746.04
527.291	746.04
527.745	746.94
528.2	754.94
528.654	738.94
529.108	741.84
529.562	732.44
530.016	746.14
530.47	738.04
530.925	734.54
531.379	730.34
531.833	748.04
532.287	750.14
532.741	746.44
533.195	748.54
533.649	760.24
534.103	769.34
534.556	746.14
535.01	756.54
535.464	752.34
535.918	760.44
536.372	757.84
536.826	768.24
537.279	759.54
537.733	761.54
538.187	763.54
538.64	768.84
539.094	771.34
539.548	772.54
540.001	776.14
540.455	767.54
540.908	770.94
541.362	774.84
541.815	797.84
542.269	800.64
542.722	811.34
543.175	833.24
543.629	827.34
544.082	837.64
544.536	840.54
544.989	833.14
545.442	856.94
545.895	841.94
546.349	849.64
546.802	842.84
547.255	858.64
547.708	858.34
548.161	865.44
548.614	878.74
549.067	884.94
549.52	885.04
549.973	861.04
550.426	868.74
550.879	856.04
551.332	855.04
551.785	863.44
552.238	873.64
552.691	871.84
553.144	890.94
553.596	913.94
554.049	926.74
554.502	953.84
554.955	974.74
555.407	972.64
555.86	963.94
556.313	954.14
556.765	947.64
557.218	938.74
557.67	947.14
558.123	931.64
558.576	923.74
559.028	932.14
559.48	935.74
559.933	940.44
560.385	908.04
560.838	872.14
561.29	840.04
561.742	831.04
562.195	816.64
562.647	824.04
563.099	830.64
563.551	823.24
564.004	832.24
564.456	823.34
564.908	807.04
565.36	780.64
565.812	777.74
566.264	770.14
566.716	767.54
567.168	748.94
567.62	756.74
568.072	731.94
568.524	738.04
568.976	733.24
569.428	717.94
569.88	719.54
570.332	719.94
570.784	730.74
571.235	731.74
571.687	740.04
572.139	747.74
572.59	763.14
573.042	764.84
573.494	752.74
573.945	755.14
574.397	736.14
574.849	734.44
575.3	742.64
575.752	727.94
576.203	720.84
576.655	719.34
577.106	719.24
577.557	708.44
578.009	720.64
578.46	706.74
578.912	701.44
579.363	701.64
579.814	712.04
580.265	711.34
580.717	716.04
581.168	711.44
581.619	724.84
582.07	722.64
582.521	719.84
582.972	721.34
583.423	709.74
583.875	714.84
584.326	724.54
584.777	732.64
585.227	756.94
585.678	766.24
586.129	786.04
586.58	815.24
587.031	833.74
587.482	859.24
587.933	887.64
588.384	871.94
588.834	829.84
589.285	806.14
589.736	816.14
590.186	809.14
590.637	808.24
591.088	792.14
591.538	784.94
591.989	776.74
592.439	771.64
592.89	757.94
593.34	739.94
593.791	744.04
594.241	744.74
594.692	739.84
595.142	732.94
595.593	737.44
596.043	738.24
596.493	747.94
596.943	744.84
597.394	759.14
597.844	760.24
598.294	783.34
598.744	795.84
599.195	826.44
599.645	868.84
600.095	913.64
600.545	970.44
600.995	1031.14
601.445	1070.34
601.895	1154.34
602.345	1195.54
602.795	1174.34
603.245	1129.64
603.695	1064.74
604.145	1021.34
604.594	966.64
605.044	906.04
605.494	851.24
605.944	801.94
606.393	784.64
606.843	758.04
607.293	771.54
607.743	779.74
608.192	779.74
608.642	791.14
609.091	787.64
609.541	806.14
609.99	796.54
610.44	798.14
610.889	755.54
611.339	738.94
611.788	711.84
612.238	728.14
612.687	745.14
613.136	739.94
613.586	731.94
614.035	727.64
614.484	743.74
614.933	746.24
615.383	745.94
615.832	747.34
616.281	740.24
616.73	707.64
617.179	688.64
617.628	683.64
618.077	659.74
618.526	649.74
618.975	647.74
619.424	638.04
619.873	647.84
620.322	643.54
620.771	632.44
621.22	628.14
621.669	622.84
622.118	615.24
622.567	609.04
623.015	602.44
623.464	602.54
623.913	594.84
624.361	571.84
624.81	579.74
625.259	590.64
625.707	585.54
626.156	580.04
626.604	598.84
627.053	596.44
627.501	592.84
627.95	593.44
628.398	608.54
628.847	609.74
629.295	598.04
629.744	602.44
630.192	593.04
630.64	590.94
631.089	577.54
631.537	560.44
631.985	555.44
632.433	554.64
632.881	552.04
633.33	553.44
633.778	547.24
634.226	553.64
634.674	564.94
635.122	567.34
635.57	580.54
636.018	586.04
636.466	595.04
636.914	588.04
637.362	597.14
637.81	606.44
638.258	615.54
638.705	614.44
639.153	635.54
639.601	649.04
640.049	672.64
640.497	698.14
640.944	732.24
641.392	674.64
641.84	637.74
642.287	603.44
642.735	587.74
643.182	587.44
643.63	580.84
644.078	591.74
644.525	603.74
644.973	611.24
645.42	623.74
645.867	642.84
646.315	659.54
646.762	687.94
647.21	713.34
647.657	734.64
648.104	759.34
648.551	786.74
648.999	857.04
649.446	917.94
649.893	1002.54
650.34	1149.44
650.787	1346.74
651.234	1670.44
651.682	2154.64
652.129	2897.74
652.576	4109.04
653.023	5965.04
653.47	8126.34
653.917	10088.84
654.363	11627.54
654.81	12860.24
655.257	12153.14
655.704	8101.14
656.151	4874.94
656.598	3198.84
657.044	2293.84
657.491	1780.54
657.938	1439.14
658.385	1215.24
658.831	1074.54
659.278	963.04
659.724	857.34
660.171	791.74
660.618	734.64
661.064	691.44
661.511	683.74
661.957	662.24
662.404	659.64
662.85	662.74
663.296	647.74
663.743	577.04
664.189	554.64
664.635	547.04
665.082	549.94
665.528	550.54
665.974	538.94
666.42	525.04
666.867	528.44
667.313	510.24
667.759	489.14
668.205	468.04
668.651	479.34
669.097	468.74
669.543	470.74
669.989	466.94
670.435	475.54
670.881	463.84
671.327	472.54
671.773	493.24
672.219	507.54
672.665	574.44
673.11	610.74
673.556	656.54
674.002	700.74
674.448	695.74
674.893	583.34
675.339	501.64
675.785	456.84
676.23	437.64
676.676	416.94
677.122	405.14
677.567	394.24
678.013	384.54
678.458	377.14
678.904	379.54
679.349	367.44
679.794	374.54
680.24	368.34
680.685	367.34
681.131	370.64
681.576	366.34
682.021	376.34
682.466	368.44
682.912	369.14
683.357	371.44
683.802	403.94
684.247	426.44
684.692	479.94
685.137	523.74
685.583	565.84
686.028	589.74
686.473	542.54
686.918	470.94
687.363	432.34
687.807	418.04
688.252	378.54
688.697	379.04
689.142	351.64
689.587	350.24
690.032	337.04
690.477	368.54
690.921	370.04
691.366	400.44
691.811	425.14
692.255	455.24
692.7	488.84
693.145	531.34
693.589	738.34
694.034	1188.04
694.478	1614.64
694.923	1847.64
695.367	2386.74
695.812	1264.74
696.256	524.04
696.701	387.74
697.145	364.14
697.59	343.84
698.034	328.44
698.478	345.34
698.922	335.14
699.367	332.24
699.811	346.04
700.255	365.24
700.699	393.44
701.143	441.84
701.588	496.14
702.032	529.14
702.476	533.14
702.92	518.84
703.364	522.94
703.808	664.44
704.252	1094.14
704.696	1515.84
705.14	1757.64
705.584	2234.64
706.027	1124.74
706.471	555.64
706.915	420.54
707.359	376.34
707.803	334.14
708.246	325.64
708.69	324.74
709.134	335.84
709.577	329.34
710.021	324.84
710.465	317.94
710.908	308.34
711.352	307.14
711.795	331.64
712.239	357.24
712.682	408.34
713.126	430.34
713.569	480.84
714.012	378.34
714.456	315.14
714.899	308.94
715.342	294.84
715.786	278.94
716.229	273.44
716.672	268.84
717.115	265.44
717.558	263.24
718.002	261.04
718.445	274.94
718.888	293.54
719.331	306.44
719.774	323.74
720.217	314.44
720.66	296.54
721.103	280.94
721.546	270.44
721.989	260.44
722.432	245.54
722.874	249.74
723.317	238.04
723.76	240.64
724.203	270.74
724.645	327.94
725.088	464.14
725.531	599.54
725.974	671.74
726.416	572.94
726.859	323.64
727.301	257.84
727.744	254.84
728.187	242.64
728.629	245.14
729.071	250.24
729.514	274.64
729.956	284.64
730.399	297.84
730.841	302.44
731.283	289.04
731.726	276.94
732.168	275.84
732.61	280.24
733.053	298.74
733.495	328.04
733.937	372.04
734.379	424.34
734.821	452.24
735.263	564.44
735.705	878.04
736.148	1677.84
736.59	2730.24
737.032	3228.74
737.474	2622.04
737.916	852.84
738.357	444.74
738.799	347.34
739.241	313.84
739.683	301.94
740.125	305.54
740.567	312.54
741.008	337.04
741.45	335.64
741.892	335.14
742.334	369.14
742.775	385.74
743.217	369.54
743.658	282.74
744.1	271.74
744.542	283.04
744.983	334.84
745.425	369.44
745.866	361.34
746.307	301.24
746.749	297.74
747.19	341.14
747.632	482.34
748.073	930.74
748.514	1981.64
748.956	3007.04
749.397	3771.24
749.838	3134.44
750.279	3122.64
750.72	1585.54
751.162	583.54
751.603	338.04
752.044	277.54
752.485	233.34
752.926	217.14
753.367	221.14
753.808	204.64
754.249	204.04
754.69	198.54
755.131	192.04
755.572	184.94
756.013	186.64
756.453	197.94
756.894	186.94
757.335	203.04
757.776	206.64
758.216	207.44
758.657	209.44
759.098	214.24
759.538	236.64
759.979	276.64
760.42	394.64
760.86	742.34
761.301	1931.04
761.741	4680.34
762.182	6792.14
762.622	4795.24
763.063	1379.24
763.503	569.74
763.943	346.14
764.384	278.74
764.824	266.94
765.264	249.24
765.705	220.24
766.145	199.54
766.585	183.04
767.025	179.34
767.465	171.44
767.906	190.94
768.346	203.34
768.786	215.34
769.226	225.84
769.666	317.84
770.106	652.54
770.546	1636.74
770.986	2784.94
771.426	2499.74
771.866	840.24
772.306	342.94
772.745	209.04
773.185	179.34
773.625	166.04
774.065	158.14
774.505	167.74
774.944	210.94
775.384	381.44
775.824	611.34
776.263	594.54
776.703	287.84
777.142	168.54
777.582	141.14
778.021	128.94
778.461	125.34
778.9	133.54
779.34	128.44
779.779	118.64
780.219	112.94
780.658	112.04
781.097	115.04
781.537	115.14
781.976	111.64
782.415	111.44
782.855	104.94
783.294	101.24
783.733	108.44
784.172	111.54
784.611	107.84
785.05	117.94
785.489	114.74
785.928	123.94
786.367	128.14
786.806	117.54
787.245	133.44
787.684	141.44
788.123	148.54
788.562	143.84
789.001	131.04
789.44	126.94
789.879	121.44
790.317	121.54
790.756	131.74
791.195	136.94
791.634	157.84
792.072	213.64
792.511	383.14
792.95	1051.74
793.388	2230.84
793.827	2024.94
794.265	703.44
794.704	298.84
795.142	193.34
795.581	157.24
796.019	147.44
796.458	135.64
796.896	127.94
797.334	138.64
797.773	165.24
798.211	222.34
798.649	457.34
799.087	1084.54
799.526	1671.04
799.964	2110.04
800.402	2121.84
800.84	798.34
801.278	318.04
801.716	198.74
802.154	166.14
802.592	150.84
803.03	152.44
803.468	142.94
803.906	151.04
804.344	151.64
804.782	144.14
805.22	142.24
805.658	137.94
806.096	157.24
806.533	163.04
806.971	175.14
807.409	232.64
807.847	339.64
808.284	706.44
808.722	1985.24
809.16	3482.94
809.597	3310.04
810.035	5680.14
810.472	6071.74
810.91	2221.04
811.347	842.04
811.785	430.54
812.222	272.64
812.66	209.04
813.097	165.94
813.535	143.34
813.972	136.74
814.409	123.94
814.846	116.14
815.284	117.14
815.721	106.94
816.158	101.34
816.595	114.94
817.032	164.74
817.47	188.84
817.907	146.84
818.344	114.34
818.781	109.74
819.218	98.64
819.655	132.54
820.092	205.84
820.529	224.74
820.966	187.24
821.403	125.04
821.839	107.94
822.276	97.54
822.713	124.14
823.15	144.94
823.587	121.94
824.023	153.74
824.46	314.54
824.897	947.94
825.333	1429.54
825.77	617.24
826.206	245.34
826.643	137.24
827.08	111.64
827.516	88.04
827.953	79.24
828.389	82.14
828.825	76.24
829.262	67.04
829.698	65.64
830.135	68.24
830.571	60.24
831.007	68.54
831.443	67.64
831.88	65.64
832.316	60.24
832.752	75.14
833.188	68.04
833.624	73.24
834.06	74.04
834.497	69.74
834.933	77.34
835.369	78.44
835.805	77.74
836.241	79.54
836.677	88.54
837.112	93.14
837.548	112.74
837.984	145.74
838.42	208.24
838.856	523.04
839.292	1605.94
839.727	2448.54
840.163	1134.34
840.599	975.54
841.034	2120.94
841.47	2235.74
841.906	820.74
842.341	347.34
842.777	207.94
843.212	205.44
843.648	191.64
844.083	113.74
844.519	87.34
844.954	78.44
845.39	59.94
845.825	56.94
846.261	55.94
846.696	52.64
847.131	55.84
847.566	68.14
848.002	64.34
848.437	57.34
848.872	63.54
849.307	68.54
849.742	92.24
850.177	190.04
850.613	586.64
851.048	919.44
851.483	396.44
851.918	161.54
852.353	88.24
852.788	55.44
853.223	59.94
853.657	52.34
854.092	54.54
854.527	51.14
854.962	44.04
855.397	43.04
855.832	49.04
856.266	39.24
856.701	43.54
857.136	40.94
857.57	39.94
858.005	53.34
858.44	63.84
858.874	48.34
859.309	56.14
859.743	42.14
860.178	46.24
860.612	45.94
861.047	58.64
861.481	75.24
861.915	74.54
862.35	56.74
862.784	35.94
863.218	41.44
863.653	38.14
864.087	47.74
864.521	59.84
864.955	70.64
865.39	168.04
865.824	186.54
866.258	121.24
866.692	176.74
867.126	198.84
867.56	115.74
867.994	67.04
868.428	43.04
868.862	55.24
869.296	60.94
869.73	67.24
870.164	59.84
870.598	52.94
871.031	35.14
871.465	40.64
871.899	37.94
872.333	29.04
872.766	26.94
873.2	22.54
873.634	31.14
874.067	28.14
874.501	27.34
874.935	34.54
875.368	32.14
875.802	29.54
876.235	19.64
876.669	27.34
877.102	27.24
877.535	22.34
877.969	26.34
878.402	25.74
878.836	22.24
879.269	25.04
879.702	28.04
880.135	27.64
880.569	21.64
881.002	24.44
881.435	29.24
881.868	18.54
882.301	20.84
882.734	19.34
883.167	20.54
883.601	19.54
884.034	30.44
884.467	14.04
884.899	25.14
885.332	14.24
885.765	17.44
886.198	12.74
886.631	24.24
887.064	15.64
887.497	24.84
887.929	21.04
888.362	14.04
888.795	14.34
889.228	20.64
889.66	19.84
890.093	22.24
890.526	18.34
890.958	19.24
891.391	20.14
891.823	25.24
892.256	17.04
892.688	12.24
893.121	17.34
893.553	22.34
893.985	24.54
894.418	24.34
894.85	14.14
895.282	15.84
895.715	15.14
896.147	14.44
896.579	19.64
897.011	13.74
897.444	20.54
897.876	13.94
898.308	12.74
898.74	15.14
899.172	15.84
899.604	22.84
900.036	20.14
900.468	17.24
900.9	16.14
901.332	17.14
901.764	17.54
902.196	19.94
902.628	19.64
903.06	20.24
903.491	30.34
903.923	27.64
904.355	20.84
904.787	20.04
905.218	28.74
905.65	24.74
906.082	14.84
906.513	17.54
906.945	15.24
907.376	19.94
907.808	23.64
908.239	21.74
908.671	17.34
909.102	25.54
909.534	28.74
909.965	51.14
910.397	99.64
910.828	321.54
911.259	495.74
911.691	235.14
912.122	113.24
912.553	52.64
912.984	31.24
913.415	27.34
913.847	26.04
914.278	12.94
914.709	16.14
915.14	16.54
915.571	21.14
916.002	15.84
916.433	20.54
916.864	16.74
917.295	15.94
917.726	25.44
918.157	15.84
918.587	31.44
919.018	28.44
919.449	23.84
919.88	23.14
920.311	28.04
920.741	49.24
921.172	177.14
921.603	155.24
922.033	80.94
922.464	45.74
922.895	22.94
923.325	20.94
923.756	12.04
924.186	9.84
924.617	20.04
925.047	22.54
925.478	25.74
925.908	19.54
926.338	14.54
926.769	14.84
927.199	21.54
927.629	6.04
928.06	13.04
928.49	16.44
928.92	19.14
929.35	8.64
929.78	12.34
930.21	6.54
930.641	4.54
931.071	10.84
931.501	3.34
931.931	7.64
932.361	8.44
932.791	3.24
933.221	7.24
933.651	15.14
934.08	21.94
934.51	27.24
934.94	7.94
935.37	15.54
935.8	9.14
936.229	6.94
936.659	11.54
937.089	9.24
937.519	16.24
937.948	24.44
938.378	19.44
938.807	5.54
939.237	2.04
939.666	11.24
940.096	-5.26
940.525	-1.06
940.955	-0.76
941.384	-0.16
941.814	-0.26
942.243	1.54
942.672	11.24
943.102	1.74
943.531	1.14
943.96	4.44
944.39	4.54
944.819	2.64
945.248	8.04
945.677	5.84
946.106	6.54
946.535	5.74
946.964	7.24
947.393	5.44
947.822	0.14
948.251	-4.56
948.68	1.24
949.109	7.84
949.538	3.04
949.967	6.14
950.396	3.74
950.825	-1.36
951.254	-2.16
951.682	-4.26
952.111	5.74
952.54	8.64
952.969	-6.86
953.397	-0.16
953.826	2.34
954.254	1.34
954.683	1.74
955.112	-3.96
955.54	1.54
955.969	0.64
956.397	2.24
956.826	2.84
957.254	1.44
957.682	2.04
958.111	5.44
958.539	-5.46
958.967	2.74
959.396	-1.66
959.824	3.24
960.252	5.54
960.68	1.84
961.109	-5.56
961.537	1.14
961.965	7.24
962.393	0.04
962.821	-6.86
963.249	0.34
963.677	9.64
964.105	5.14
964.533	48.94
964.961	40.44
965.389	19.54
965.817	4.44
966.245	5.04
966.672	-1.46
967.1	-1.16
967.528	1.94
967.956	-1.26
968.383	2.04
968.811	-2.26
969.239	-2.76
969.666	-3.56
970.094	-2.76
970.522	5.24
970.949	2.94
971.377	-4.16
971.804	-2.96
972.232	0.44
972.659	-1.16
973.087	-1.06
973.514	-1.86
973.941	-3.76
974.369	2.54
974.796	-1.36
975.223	-1.86
975.651	1.44
976.078	6.74
976.505	-0.76
976.932	4.54
977.359	12.14
977.786	11.14
978.214	-2.06
978.641	-1.46
979.068	4.54
979.495	-4.56
979.922	0.44
980.349	-2.36
980.776	6.04
981.202	3.44
981.629	10.64
982.056	6.44
982.483	-0.36
982.91	1.94
983.337	0.64
983.763	5.84
984.19	-4.06
984.617	2.74
985.043	-4.16
985.47	-3.66
985.897	-3.26
986.323	-1.86
986.75	1.74
987.176	-1.66
987.603	-2.96
988.029	-2.86
988.456	-0.96
988.882	6.94
989.308	-3.16
989.735	-2.66
990.161	1.94
990.587	-3.46
991.014	2.34
991.44	0.44
991.866	4.14
992.292	-7.86
992.719	2.04
993.145	3.44
993.571	-6.86
993.997	-0.96
994.423	-1.46
994.849	-3.66
995.275	1.24
995.701	1.74
996.127	-2.16
996.553	2.14
996.979	0.34
997.405	-4.86
997.83	-5.06
998.256	-6.46
998.682	-4.46
999.108	-9.56
999.534	1.54
999.959	-0.76
1000.385	-6.86
1000.811	-3.76
1001.236	-6.76
1001.662	-4.36
1002.087	-11.26
1002.513	-2.76
1002.938	3.54
1003.364	-3.46
1003.789	3.64
1004.215	4.54
1004.64	2.54
1005.066	4.64
1005.491	7.04
1005.916	-1.16
1006.342	-3.36
1006.767	-3.56
1007.192	4.84
1007.617	-2.16
1008.042	-10.56
1008.468	-9.96
1008.893	-4.46
1009.318	-5.86
1009.743	-1.56
1010.168	8.24
1010.593	5.04
1011.018	-4.66
1011.443	-0.86
1011.868	2.44
1012.293	-0.36
1012.718	-8.06
1013.143	-2.56
1013.567	-0.16
1013.992	1.34
1014.417	-15.96
1014.842	2.54
1015.267	-4.76
1015.691	-8.06
1016.116	6.04
1016.541	-2.06
1016.965	-1.36
1017.39	1.94
1017.814	2.14
1018.239	1.54
1018.663	-7.36
1019.088	-10.86
1019.512	-9.26
1019.937	-2.76
1020.361	-7.96
1020.785	-8.16
1021.21	0.74
1021.634	3.74
1022.058	-1.76
1022.483	5.24
1022.907	-3.56
1023.331	-3.46
1023.755	-4.66
1024.179	-0.36
1024.604	-6.96
1025.028	-5.26
1025.452	-0.66
1025.876	-1.56
1026.3	-2.26
1026.724	-5.26
1027.148	-3.16
1027.572	-11.36
1027.996	-1.86
1028.42	-0.56
1028.843	-4.56
1029.267	-9.56
1029.691	-4.16
1030.115	-10.56
1030.539	-7.26
1030.962	-7.46
1031.386	-5.16
1031.81	0.34
1032.233	-1.26
1032.657	-1.76
1033.08	-5.06
1033.504	-6.86
1033.927	-2.46
1034.351	3.24
1034.774	0.34
1035.198	-3.46
1035.621	-3.56
1036.045	0.84
1036.468	2.14
1036.891	-16.46
1037.315	-5.96
1037.738	-10.16
1038.161	-2.36
1038.584	-4.46
1039.008	-4.96
1039.431	-7.26
1039.854	-6.36
1040.277	-8.06
1040.7	-9.46
1041.123	-4.86
1041.546	-6.16
1041.969	-3.86
1042.392	-4.26
1042.815	0.74
1043.238	-2.86
1043.661	0.64
1044.084	-3.96
1044.507	-6.46
1044.93	-2.76
1045.352	-0.06
1045.775	-2.06
1046.198	-2.46
1046.621	0.74
1047.043	0.24
1047.466	7.44
1047.889	-4.96
1048.311	-6.06
1048.734	-3.36
1049.156	-1.16
1049.579	-4.26
1050.001	-6.66
1050.424	-3.36
1050.846	-9.16
1051.269	-6.56
1051.691	-2.06
1052.113	-4.66
1052.536	-4.36
1052.958	0.04
1053.38	-8.86
1053.802	-13.26
1054.225	-1.16
1054.647	-9.86
1055.069	-6.26
1055.491	4.44
1055.913	-9.26
1056.335	-2.16
1056.757	-1.46
1057.179	-6.36
1057.601	-5.36
1058.023	-6.46
1058.445	-6.46
1058.867	-1.36
1059.289	-8.16
1059.711	-4.36
1060.133	-7.36
1060.555	-8.36
1060.976	-5.46
1061.398	2.04
1061.82	-1.86
1062.241	-7.86
1062.663	-6.16
1063.085	-4.16
1063.506	4.84
1063.928	0.64
1064.35	-0.76
1064.771	-8.76
1065.193	-2.26
1065.614	-6.06
1066.035	-3.06
1066.457	-4.06
1066.878	-3.56
1067.3	-3.86
1067.721	5.24
1068.142	-0.46
1068.564	-2.66
1068.985	-3.26
1069.406	0.64
1069.827	-11.46
1070.248	-4.96
1070.67	-6.66
1071.091	-4.46
1071.512	-5.06
1071.933	-6.96
1072.354	-8.86
1072.775	-6.36
1073.196	-11.66
1073.617	-2.46
1074.038	-9.36
1074.459	-7.26
1074.88	-9.66
1075.3	-2.16
1075.721	-5.86
1076.142	2.64
1076.563	-2.26
1076.983	-7.66
1077.404	-1.16
1077.825	-15.06
1078.246	-6.86
1078.666	-8.06
1079.087	-5.46
1079.507	-8.06
1079.928	-1.16
1080.348	0.04
1080.769	0.34
1081.189	-3.26
1081.61	-3.96
1082.03	-9.16
1082.451	-7.96
1082.871	-4.06
1083.291	-8.46
1083.711	-7.56
1084.132	-11.06
1084.552	-2.96
1084.972	1.74
1085.392	-6.36
1085.813	-12.86
1086.233	-12.26
1086.653	-10.56
1087.073	-1.66
1087.493	-4.46
1087.913	-7.86
1088.333	-4.56
1088.753	-0.76
1089.173	4.34
1089.593	-2.66
1090.013	1.84
1090.433	0.54
1090.852	-9.76
1091.272	-4.66
1091.692	-1.86
1092.112	-2.36
1092.531	-8.66
1092.951	-17.46
1093.371	1.44
1093.79	1.94
1094.21	-11.66
1094.63	-1.96
1095.049	-0.96
1095.469	-3.96
1095.888	-8.96
1096.308	1.64
1096.727	1.04
1097.146	-8.86
1097.566	0.74
1097.985	0.04
1098.405	0.94
1098.824	-13.16
1099.243	-8.86
1099.662	-8.66
1100.082	-6.16
1100.501	3.54
1100.92	-6.16
1101.339	-10.56
1101.758	-4.66
