Data from 20171114-ORNL-Ar_H_NY_Subt18_08-08-03-100.txt Node
Date: Tue Nov 14 08:08:03 EST 2017
User: Ender
Spectrometer: HR+D1039
Trigger mode: 0
Integration Time (sec): 2.730000E-2
Scans to average: 10
Electric dark correction enabled: true
Nonlinearity correction enabled: false
Boxcar width: 0
XAxis mode: Wavelengths
Number of Pixels in Spectrum: 2048
>>>>>Begin Spectral Data<<<<<
187.836	-3.76
188.309	-3.76
188.782	-3.76
189.255	3.94
189.728	-0.26
190.201	1.14
190.674	-0.26
191.147	3.14
191.619	-10.46
192.092	4.14
192.565	-1.06
193.038	0.04
193.511	-1.26
193.984	2.44
194.456	0.14
194.929	2.34
195.402	-1.96
195.874	1.64
196.347	1.44
196.82	-6.26
197.292	9.04
197.765	-3.96
198.237	-4.96
198.71	3.64
199.182	-4.76
199.655	1.34
200.127	-2.66
200.6	-0.86
201.072	-3.76
201.544	-3.36
202.017	-2.86
202.489	8.44
202.961	-5.16
203.433	-6.66
203.906	-8.36
204.378	-2.36
204.85	-2.36
205.322	-9.46
205.794	0.24
206.266	-7.36
206.739	-8.26
207.211	1.44
207.683	-5.66
208.155	-4.96
208.627	-1.46
209.099	0.74
209.57	-8.56
210.042	-4.16
210.514	-8.26
210.986	0.74
211.458	-9.86
211.93	2.54
212.402	-0.36
212.873	0.44
213.345	-5.36
213.817	-15.56
214.288	-3.36
214.76	-14.96
215.232	-5.06
215.703	2.44
216.175	2.04
216.646	4.94
217.118	-4.56
217.589	-6.96
218.061	-4.86
218.532	-0.76
219.004	-1.06
219.475	-0.26
219.946	3.14
220.418	-7.56
220.889	1.04
221.36	-1.86
221.832	-4.56
222.303	-9.06
222.774	2.34
223.245	-13.86
223.717	-0.26
224.188	-6.96
224.659	-6.16
225.13	-2.36
225.601	-3.06
226.072	0.04
226.543	-3.56
227.014	0.74
227.485	0.04
227.956	-7.56
228.427	-1.66
228.898	-3.66
229.369	1.04
229.839	-1.36
230.31	-8.56
230.781	2.64
231.252	-2.86
231.722	-2.06
232.193	-2.16
232.664	-1.86
233.135	3.14
233.605	-3.86
234.076	-3.46
234.546	-4.46
235.017	-1.96
235.487	5.34
235.958	-3.56
236.428	-1.06
236.899	3.04
237.369	4.74
237.84	-0.56
238.31	4.14
238.78	2.24
239.251	-3.36
239.721	-0.56
240.191	-1.66
240.662	1.24
241.132	0.44
241.602	-2.96
242.072	5.24
242.542	4.54
243.013	-0.06
243.483	3.34
243.953	1.64
244.423	-1.26
244.893	-0.06
245.363	0.84
245.833	3.94
246.303	-1.66
246.773	6.64
247.243	0.24
247.712	7.24
248.182	8.04
248.652	0.94
249.122	-1.06
249.592	11.24
250.061	22.84
250.531	27.34
251.001	17.04
251.471	17.64
251.94	19.14
252.41	6.04
252.879	-2.26
253.349	11.84
253.818	6.94
254.288	0.04
254.757	5.34
255.227	4.64
255.696	2.74
256.166	6.04
256.635	6.04
257.105	7.74
257.574	10.64
258.043	9.54
258.513	10.54
258.982	16.04
259.451	4.04
259.92	14.94
260.389	10.84
260.859	13.24
261.328	9.14
261.797	13.34
262.266	3.94
262.735	9.94
263.204	6.24
263.673	0.54
264.142	8.04
264.611	-3.76
265.08	-0.26
265.549	-1.46
266.018	6.94
266.487	-3.76
266.955	-1.46
267.424	-0.96
267.893	10.54
268.362	-0.66
268.83	5.84
269.299	10.94
269.768	4.14
270.236	8.44
270.705	-2.06
271.174	3.64
271.642	6.14
272.111	9.74
272.579	19.44
273.048	25.94
273.516	19.84
273.985	24.84
274.453	23.04
274.922	17.04
275.39	14.94
275.858	7.04
276.327	7.54
276.795	15.94
277.263	7.14
277.731	29.14
278.2	49.34
278.668	56.64
279.136	41.94
279.604	23.44
280.072	18.74
280.54	12.14
281.008	9.54
281.477	18.04
281.945	16.94
282.413	16.54
282.881	19.64
283.348	8.34
283.816	20.24
284.284	12.04
284.752	21.04
285.22	18.84
285.688	14.74
286.156	14.74
286.623	42.04
287.091	49.04
287.559	28.54
288.026	18.54
288.494	15.24
288.962	7.54
289.429	10.64
289.897	17.34
290.364	17.64
290.832	13.84
291.3	8.84
291.767	16.84
292.234	13.94
292.702	12.14
293.169	16.84
293.637	23.74
294.104	14.44
294.571	11.04
295.039	8.84
295.506	10.84
295.973	20.14
296.44	17.04
296.908	20.84
297.375	21.24
297.842	19.64
298.309	18.34
298.776	18.44
299.243	19.04
299.71	9.74
300.177	24.34
300.644	21.34
301.111	20.94
301.578	28.64
302.045	14.84
302.512	21.04
302.979	19.04
303.446	22.64
303.913	14.44
304.379	18.14
304.846	28.24
305.313	23.94
305.78	20.94
306.246	30.24
306.713	26.94
307.18	29.34
307.646	30.64
308.113	34.44
308.579	23.24
309.046	27.34
309.512	30.34
309.979	19.34
310.445	28.74
310.912	26.74
311.378	28.24
311.845	32.14
312.311	33.14
312.777	34.54
313.244	33.44
313.71	37.04
314.176	29.44
314.642	27.14
315.109	35.14
315.575	35.94
316.041	36.84
316.507	30.04
316.973	36.54
317.439	32.84
317.905	31.44
318.371	36.54
318.837	32.04
319.303	35.54
319.769	39.64
320.235	33.24
320.701	37.94
321.167	35.84
321.633	32.34
322.099	33.74
322.564	45.24
323.03	42.44
323.496	39.94
323.962	44.34
324.427	35.54
324.893	40.04
325.359	37.34
325.824	38.94
326.29	33.74
326.755	41.44
327.221	34.04
327.686	34.24
328.152	48.44
328.617	37.64
329.083	46.14
329.548	49.44
330.014	43.34
330.479	34.54
330.944	44.24
331.41	46.54
331.875	45.44
332.34	40.74
332.805	41.54
333.271	51.64
333.736	37.94
334.201	52.64
334.666	56.54
335.131	54.84
335.596	52.34
336.061	56.44
336.526	44.24
336.991	47.84
337.456	54.24
337.921	50.94
338.386	43.64
338.851	44.74
339.316	45.24
339.781	43.94
340.246	56.14
340.711	43.74
341.175	54.54
341.64	46.44
342.105	49.84
342.569	55.84
343.034	60.54
343.499	55.64
343.963	52.14
344.428	65.54
344.893	59.94
345.357	58.04
345.822	63.54
346.286	66.34
346.751	78.64
347.215	65.94
347.679	72.54
348.144	100.04
348.608	78.94
349.073	69.94
349.537	75.94
350.001	83.24
350.465	85.04
350.93	81.94
351.394	78.84
351.858	75.54
352.322	89.04
352.786	88.14
353.25	98.34
353.715	110.64
354.179	100.24
354.643	116.44
355.107	134.34
355.571	107.44
356.035	108.54
356.498	116.44
356.962	122.14
357.426	136.14
357.89	115.14
358.354	91.14
358.818	88.34
359.281	81.34
359.745	78.44
360.209	79.94
360.673	72.64
361.136	83.44
361.6	91.04
362.064	88.24
362.527	79.34
362.991	91.44
363.454	81.94
363.918	80.54
364.381	80.64
364.845	83.34
365.308	87.34
365.772	88.54
366.235	85.04
366.698	83.84
367.162	90.54
367.625	89.54
368.088	88.84
368.552	88.34
369.015	96.74
369.478	95.34
369.941	96.94
370.404	98.84
370.867	100.14
371.331	106.64
371.794	120.44
372.257	115.64
372.72	121.14
373.183	112.44
373.646	111.94
374.109	105.74
374.572	115.24
375.035	110.14
375.497	110.34
375.96	106.54
376.423	104.14
376.886	115.24
377.349	114.54
377.811	112.84
378.274	106.24
378.737	107.74
379.199	120.34
379.662	116.94
380.125	121.14
380.587	119.74
381.05	124.44
381.512	130.94
381.975	138.54
382.437	133.14
382.9	132.14
383.362	141.24
383.825	147.34
384.287	152.64
384.75	147.34
385.212	142.24
385.674	142.74
386.136	137.84
386.599	125.14
387.061	128.14
387.523	132.54
387.985	143.04
388.447	153.34
388.91	150.14
389.372	167.24
389.834	158.04
390.296	147.34
390.758	162.64
391.22	175.34
391.682	216.44
392.144	311.24
392.606	232.74
393.068	171.44
393.529	171.34
393.991	158.64
394.453	151.14
394.915	163.44
395.377	196.74
395.838	219.74
396.3	161.34
396.762	144.44
397.224	136.94
397.685	139.14
398.147	134.04
398.608	133.74
399.07	132.34
399.531	139.14
399.993	141.94
400.454	153.74
400.916	151.14
401.377	147.14
401.839	158.94
402.3	156.14
402.762	170.34
403.223	184.24
403.684	176.14
404.145	171.64
404.607	166.74
405.068	164.74
405.529	176.14
405.99	194.44
406.451	179.84
406.913	174.24
407.374	176.14
407.835	168.04
408.296	174.14
408.757	178.64
409.218	188.14
409.679	185.94
410.14	179.04
410.601	174.74
411.062	192.14
411.522	203.04
411.983	194.24
412.444	180.54
412.905	184.94
413.366	188.04
413.826	199.44
414.287	220.14
414.748	269.14
415.208	243.74
415.669	213.14
416.13	207.14
416.59	210.24
417.051	216.94
417.511	232.24
417.972	245.04
418.432	257.24
418.893	298.54
419.353	255.14
419.814	207.24
420.274	195.14
420.734	182.94
421.195	204.34
421.655	203.24
422.115	199.84
422.576	196.54
423.036	200.74
423.496	209.64
423.956	225.34
424.416	232.64
424.876	271.54
425.336	258.74
425.797	269.34
426.257	257.44
426.717	245.34
427.177	243.94
427.637	231.24
428.097	248.54
428.556	260.14
429.016	275.44
429.476	275.64
429.936	280.94
430.396	287.64
430.856	295.24
431.315	328.44
431.775	359.04
432.235	394.74
432.694	366.04
433.154	380.14
433.614	406.94
434.073	343.24
434.533	292.54
434.993	273.24
435.452	288.04
435.912	303.64
436.371	296.04
436.83	292.44
437.29	281.04
437.749	256.44
438.209	246.84
438.668	275.74
439.127	297.24
439.587	275.04
440.046	252.34
440.505	269.14
440.964	289.24
441.424	339.64
441.883	323.94
442.342	267.74
442.801	234.34
443.26	224.14
443.719	232.14
444.178	224.24
444.637	219.24
445.096	221.44
445.555	226.84
446.014	224.64
446.473	233.04
446.932	237.94
447.391	229.04
447.849	231.54
448.308	221.24
448.767	229.24
449.226	240.34
449.685	245.14
450.143	259.64
450.602	236.04
451.061	231.44
451.519	243.74
451.978	236.84
452.436	244.94
452.895	249.14
453.353	254.94
453.812	243.54
454.27	239.44
454.729	242.84
455.187	241.54
455.646	253.24
456.104	255.14
456.562	269.94
457.021	270.54
457.479	261.14
457.937	279.04
458.395	263.94
458.854	254.44
459.312	266.84
459.77	284.44
460.228	263.34
460.686	251.04
461.144	250.54
461.602	256.74
462.06	253.44
462.518	261.94
462.976	267.04
463.434	261.94
463.892	266.34
464.35	287.34
464.808	293.64
465.266	272.24
465.724	274.74
466.181	277.94
466.639	278.44
467.097	293.04
467.555	311.94
468.012	304.64
468.47	319.04
468.928	332.44
469.385	346.14
469.843	358.14
470.3	346.64
470.758	369.34
471.215	394.14
471.673	414.74
472.13	412.44
472.588	429.94
473.045	382.74
473.503	381.84
473.96	400.94
474.417	415.64
474.875	441.74
475.332	483.34
475.789	474.34
476.246	479.14
476.704	497.94
477.161	518.64
477.618	538.04
478.075	576.94
478.532	630.94
478.989	709.34
479.446	824.64
479.903	785.04
480.36	829.74
480.817	889.34
481.274	980.94
481.731	1091.54
482.188	1182.64
482.645	1323.54
483.102	1433.64
483.558	1556.94
484.015	1617.24
484.472	1594.64
484.929	1536.64
485.385	1477.74
485.842	1432.14
486.299	1368.14
486.755	1316.44
487.212	1109.84
487.668	924.74
488.125	860.64
488.582	795.94
489.038	757.64
489.494	718.04
489.951	697.24
490.407	685.04
490.864	656.84
491.32	647.64
491.776	647.34
492.233	660.14
492.689	620.94
493.145	620.14
493.602	612.44
494.058	620.54
494.514	634.44
494.97	645.14
495.426	661.74
495.882	630.44
496.338	620.24
496.794	630.34
497.251	626.24
497.707	636.84
498.163	636.54
498.618	644.94
499.074	643.64
499.53	679.84
499.986	679.54
500.442	672.94
500.898	638.94
501.354	633.44
501.809	636.14
502.265	663.84
502.721	679.74
503.177	683.74
503.632	676.74
504.088	691.04
504.543	718.74
504.999	727.04
505.455	670.74
505.91	648.44
506.366	644.04
506.821	628.34
507.277	633.04
507.732	648.04
508.187	637.94
508.643	641.04
509.098	636.94
509.553	662.74
510.009	672.64
510.464	685.04
510.919	697.44
511.375	702.24
511.83	725.94
512.285	732.24
512.74	765.44
513.195	789.14
513.65	778.74
514.105	771.84
514.56	781.34
515.015	799.54
515.47	805.04
515.925	801.54
516.38	791.04
516.835	812.14
517.29	798.94
517.745	786.34
518.2	768.14
518.655	752.64
519.109	752.04
519.564	752.34
520.019	739.24
520.474	731.24
520.928	732.34
521.383	721.24
521.838	721.34
522.292	726.44
522.747	711.44
523.201	713.54
523.656	707.04
524.11	701.54
524.565	686.24
525.019	701.94
525.474	712.84
525.928	708.54
526.382	699.04
526.837	701.24
527.291	707.64
527.745	695.24
528.2	702.24
528.654	703.04
529.108	689.84
529.562	692.94
530.016	689.94
530.47	698.74
530.925	699.64
531.379	702.04
531.833	713.04
532.287	710.24
532.741	705.34
533.195	717.34
533.649	720.14
534.103	726.14
534.556	715.94
535.01	720.94
535.464	717.44
535.918	718.74
536.372	719.64
536.826	727.24
537.279	709.84
537.733	717.94
538.187	721.14
538.64	720.84
539.094	728.24
539.548	731.04
540.001	731.44
540.455	731.14
540.908	740.64
541.362	747.44
541.815	755.14
542.269	756.74
542.722	781.04
543.175	771.74
543.629	778.34
544.082	795.44
544.536	792.84
544.989	789.44
545.442	803.24
545.895	788.04
546.349	800.14
546.802	800.64
547.255	811.64
547.708	813.54
548.161	817.04
548.614	841.14
549.067	841.34
549.52	833.44
549.973	816.64
550.426	816.14
550.879	799.84
551.332	808.54
551.785	814.54
552.238	820.34
552.691	820.94
553.144	843.94
553.596	862.24
554.049	877.54
554.502	904.34
554.955	914.94
555.407	918.24
555.86	906.04
556.313	893.44
556.765	885.84
557.218	883.94
557.67	889.24
558.123	889.34
558.576	879.04
559.028	881.04
559.48	892.74
559.933	877.74
560.385	847.54
560.838	819.64
561.29	785.54
561.742	789.34
562.195	771.44
562.647	771.54
563.099	785.14
563.551	775.64
564.004	792.74
564.456	785.34
564.908	773.74
565.36	757.54
565.812	750.44
566.264	730.74
566.716	729.64
567.168	718.44
567.62	739.84
568.072	714.24
568.524	708.14
568.976	698.54
569.428	679.44
569.88	682.14
570.332	689.64
570.784	696.44
571.235	684.54
571.687	715.24
572.139	711.94
572.59	729.44
573.042	719.84
573.494	715.24
573.945	712.74
574.397	688.74
574.849	693.44
575.3	700.84
575.752	697.04
576.203	687.54
576.655	700.74
577.106	670.34
577.557	677.24
578.009	677.74
578.46	674.14
578.912	665.84
579.363	672.24
579.814	675.44
580.265	668.74
580.717	676.94
581.168	674.34
581.619	691.54
582.07	701.54
582.521	672.24
582.972	680.54
583.423	671.34
583.875	690.24
584.326	716.14
584.777	765.04
585.227	839.94
585.678	937.84
586.129	1034.74
586.58	1107.34
587.031	1176.64
587.482	1322.54
587.933	1530.34
588.384	1317.94
588.834	989.24
589.285	814.34
589.736	791.34
590.186	783.94
590.637	782.04
591.088	745.14
591.538	751.84
591.989	749.14
592.439	740.14
592.89	731.84
593.34	716.24
593.791	718.34
594.241	709.54
594.692	726.74
595.142	707.24
595.593	711.54
596.043	729.44
596.493	727.84
596.943	729.54
597.394	729.04
597.844	731.14
598.294	738.24
598.744	762.04
599.195	792.44
599.645	833.44
600.095	869.74
600.545	939.14
600.995	978.34
601.445	1033.74
601.895	1106.84
602.345	1151.54
602.795	1128.94
603.245	1077.24
603.695	1027.54
604.145	965.94
604.594	932.84
605.044	870.84
605.494	815.54
605.944	767.64
606.393	755.44
606.843	738.74
607.293	746.74
607.743	743.44
608.192	748.84
608.642	774.34
609.091	781.94
609.541	774.54
609.99	767.64
610.44	785.74
610.889	736.04
611.339	711.04
611.788	700.84
612.238	724.04
612.687	727.94
613.136	727.94
613.586	759.34
614.035	739.74
614.484	763.14
614.933	771.14
615.383	760.74
615.832	746.44
616.281	733.24
616.73	702.04
617.179	680.74
617.628	668.14
618.077	651.94
618.526	631.84
618.975	624.64
619.424	631.14
619.873	623.94
620.322	619.94
620.771	612.04
621.22	606.74
621.669	601.34
622.118	600.14
622.567	587.54
623.015	588.04
623.464	577.94
623.913	571.84
624.361	564.74
624.81	554.94
625.259	565.84
625.707	563.64
626.156	575.04
626.604	574.24
627.053	570.54
627.501	572.94
627.95	582.84
628.398	589.64
628.847	578.04
629.295	584.04
629.744	589.84
630.192	583.64
630.64	580.84
631.089	586.94
631.537	588.54
631.985	598.14
632.433	618.24
632.881	636.54
633.33	681.84
633.778	660.54
634.226	580.04
634.674	583.04
635.122	595.14
635.57	607.44
636.018	636.74
636.466	591.24
636.914	566.94
637.362	576.94
637.81	584.54
638.258	593.34
638.705	592.44
639.153	627.74
639.601	631.24
640.049	652.54
640.497	683.54
640.944	708.04
641.392	655.24
641.84	621.64
642.287	597.14
642.735	580.24
643.182	574.14
643.63	573.14
644.078	579.94
644.525	602.04
644.973	618.14
645.42	613.24
645.867	629.94
646.315	649.44
646.762	664.04
647.21	699.54
647.657	731.04
648.104	767.44
648.551	778.04
648.999	851.34
649.446	931.54
649.893	1022.34
650.34	1183.64
650.787	1420.74
651.234	1769.84
651.682	2325.24
652.129	3190.14
652.576	4605.14
653.023	6760.04
653.47	9295.24
653.917	11463.44
654.363	13166.74
654.81	14452.64
655.257	13751.24
655.704	9033.14
656.151	5323.54
656.598	3463.44
657.044	2440.64
657.491	1880.64
657.938	1506.84
658.385	1267.74
658.831	1093.14
659.278	978.54
659.724	865.94
660.171	810.64
660.618	729.14
661.064	696.04
661.511	681.14
661.957	664.24
662.404	656.74
662.85	663.24
663.296	628.14
663.743	573.24
664.189	545.44
664.635	542.94
665.082	537.84
665.528	539.94
665.974	525.64
666.42	521.34
666.867	518.54
667.313	496.44
667.759	495.74
668.205	491.54
668.651	496.24
669.097	500.54
669.543	515.94
669.989	476.54
670.435	456.14
670.881	461.04
671.327	452.14
671.773	477.34
672.219	496.64
672.665	556.64
673.11	594.14
673.556	634.24
674.002	665.34
674.448	674.34
674.893	554.04
675.339	487.74
675.785	443.14
676.23	422.34
676.676	391.54
677.122	385.94
677.567	375.04
678.013	367.14
678.458	365.64
678.904	372.14
679.349	368.14
679.794	360.14
680.24	357.34
680.685	342.64
681.131	350.24
681.576	358.54
682.021	358.84
682.466	351.24
682.912	354.64
683.357	351.84
683.802	385.14
684.247	413.64
684.692	453.84
685.137	504.04
685.583	547.74
686.028	560.04
686.473	521.84
686.918	448.54
687.363	425.14
687.807	395.84
688.252	368.24
688.697	361.74
689.142	342.24
689.587	337.94
690.032	326.44
690.477	351.94
690.921	347.14
691.366	394.24
691.811	407.64
692.255	442.24
692.7	472.84
693.145	512.24
693.589	720.44
694.034	1174.34
694.478	1578.54
694.923	1746.24
695.367	2280.14
695.812	1202.54
696.256	507.04
696.701	373.74
697.145	354.54
697.59	337.74
698.034	333.14
698.478	340.64
698.922	337.54
699.367	337.74
699.811	342.84
700.255	367.44
700.699	390.44
701.143	440.34
701.588	489.64
702.032	518.34
702.476	519.24
702.92	498.34
703.364	501.84
703.808	664.54
704.252	1062.54
704.696	1492.64
705.14	1693.34
705.584	2128.84
706.027	1074.94
706.471	530.94
706.915	405.24
707.359	362.34
707.803	321.24
708.246	320.94
708.69	315.24
709.134	318.14
709.577	322.24
710.021	323.24
710.465	319.14
710.908	308.34
711.352	302.14
711.795	322.24
712.239	364.84
712.682	398.74
713.126	418.94
713.569	464.94
714.012	375.14
714.456	328.64
714.899	302.04
715.342	280.84
715.786	268.54
716.229	262.94
716.672	263.04
717.115	249.84
717.558	259.24
718.002	264.64
718.445	265.34
718.888	294.04
719.331	301.24
719.774	316.94
720.217	302.74
720.66	286.44
721.103	268.44
721.546	257.84
721.989	256.94
722.432	240.74
722.874	237.14
723.317	236.34
723.76	244.04
724.203	261.14
724.645	323.54
725.088	469.74
725.531	580.84
725.974	655.84
726.416	558.24
726.859	311.84
727.301	255.74
727.744	242.24
728.187	236.34
728.629	240.44
729.071	244.04
729.514	259.74
729.956	280.14
730.399	284.94
730.841	294.74
731.283	275.34
731.726	270.34
732.168	273.04
732.61	270.84
733.053	288.64
733.495	330.24
733.937	358.44
734.379	405.44
734.821	446.54
735.263	561.64
735.705	869.34
736.148	1644.24
736.59	2643.14
737.032	3066.04
737.474	2485.94
737.916	815.04
738.357	438.44
738.799	328.04
739.241	310.34
739.683	292.04
740.125	290.54
740.567	306.64
741.008	321.04
741.45	310.64
741.892	319.94
742.334	360.14
742.775	367.64
743.217	344.14
743.658	276.34
744.1	260.24
744.542	262.24
744.983	312.84
745.425	339.54
745.866	349.14
746.307	297.24
746.749	285.44
747.19	332.34
747.632	467.64
748.073	922.64
748.514	1923.34
748.956	2880.64
749.397	3623.54
749.838	3004.74
750.279	2940.24
750.72	1492.94
751.162	552.24
751.603	320.04
752.044	260.04
752.485	223.54
752.926	214.74
753.367	204.54
753.808	200.84
754.249	182.74
754.69	195.84
755.131	187.34
755.572	186.54
756.013	187.44
756.453	190.34
756.894	196.64
757.335	191.14
757.776	196.24
758.216	197.94
758.657	198.04
759.098	213.54
759.538	230.64
759.979	279.04
760.42	390.44
760.86	737.54
761.301	1923.24
761.741	4549.34
762.182	6420.54
762.622	4495.84
763.063	1318.94
763.503	543.84
763.943	354.64
764.384	351.24
764.824	422.64
765.264	452.74
765.705	313.94
766.145	207.44
766.585	192.64
767.025	182.34
767.465	188.14
767.906	253.64
768.346	332.84
768.786	360.14
769.226	267.54
769.666	328.54
770.106	653.44
770.546	1627.24
770.986	2662.84
771.426	2350.74
771.866	795.04
772.306	336.74
772.745	212.54
773.185	174.64
773.625	174.14
774.065	166.84
774.505	199.54
774.944	319.04
775.384	703.64
775.824	1225.44
776.263	1184.24
776.703	510.44
777.142	221.14
777.582	163.64
778.021	140.54
778.461	144.94
778.9	142.44
779.34	140.94
779.779	123.54
780.219	115.74
780.658	114.34
781.097	116.74
781.537	121.04
781.976	115.74
782.415	110.84
782.855	111.64
783.294	106.64
783.733	106.94
784.172	111.64
784.611	107.44
785.05	105.64
785.489	107.64
785.928	122.34
786.367	115.64
786.806	118.34
787.245	129.14
787.684	135.44
788.123	151.94
788.562	141.74
789.001	128.24
789.44	129.34
789.879	118.84
790.317	125.84
790.756	134.14
791.195	129.44
791.634	151.84
792.072	204.64
792.511	379.54
792.95	1067.54
793.388	2169.34
793.827	1907.04
794.265	689.64
794.704	281.84
795.142	186.54
795.581	156.64
796.019	142.84
796.458	127.84
796.896	134.24
797.334	131.74
797.773	159.74
798.211	232.64
798.649	459.94
799.087	1046.14
799.526	1625.04
799.964	2041.44
800.402	1999.24
800.84	756.04
801.278	307.34
801.716	195.04
802.154	158.94
802.592	149.24
803.03	144.84
803.468	135.04
803.906	149.54
804.344	157.54
804.782	142.94
805.22	134.94
805.658	129.64
806.096	147.54
806.533	155.24
806.971	173.34
807.409	229.54
807.847	327.64
808.284	702.84
808.722	1941.34
809.16	3309.84
809.597	3189.24
810.035	5490.34
810.472	5714.64
810.91	2079.34
811.347	798.04
811.785	404.64
812.222	258.94
812.66	202.04
813.097	162.14
813.535	146.94
813.972	135.04
814.409	121.24
814.846	115.54
815.284	114.24
815.721	102.04
816.158	108.34
816.595	126.34
817.032	189.44
817.47	199.74
817.907	164.64
818.344	151.44
818.781	119.94
819.218	104.74
819.655	130.54
820.092	192.54
820.529	212.74
820.966	180.14
821.403	135.74
821.839	111.34
822.276	104.14
822.713	129.44
823.15	135.04
823.587	114.94
824.023	153.74
824.46	317.54
824.897	925.04
825.333	1347.54
825.77	579.54
826.206	227.64
826.643	133.34
827.08	97.84
827.516	87.14
827.953	77.34
828.389	79.94
828.825	74.84
829.262	69.64
829.698	69.54
830.135	61.94
830.571	65.14
831.007	62.54
831.443	67.74
831.88	62.24
832.316	63.34
832.752	68.94
833.188	71.74
833.624	66.54
834.06	69.04
834.497	72.94
834.933	70.54
835.369	77.74
835.805	69.84
836.241	80.24
836.677	86.34
837.112	89.84
837.548	107.14
837.984	134.84
838.42	207.64
838.856	513.74
839.292	1557.84
839.727	2308.64
840.163	1071.14
840.599	962.54
841.034	2078.04
841.47	2103.04
841.906	777.14
842.341	349.14
842.777	236.84
843.212	325.84
843.648	311.64
844.083	152.04
844.519	101.34
844.954	76.74
845.39	65.24
845.825	57.84
846.261	60.24
846.696	58.64
847.131	55.54
847.566	59.74
848.002	53.64
848.437	57.04
848.872	70.34
849.307	62.44
849.742	88.74
850.177	193.44
850.613	575.64
851.048	879.24
851.483	376.34
851.918	153.44
852.353	87.34
852.788	58.24
853.223	55.44
853.657	56.64
854.092	52.44
854.527	44.54
854.962	41.44
855.397	39.74
855.832	41.94
856.266	43.44
856.701	39.54
857.136	36.74
857.57	37.94
858.005	48.64
858.44	59.14
858.874	44.14
859.309	58.24
859.743	38.54
860.178	48.64
860.612	38.44
861.047	53.94
861.481	70.44
861.915	72.34
862.35	49.94
862.784	35.54
863.218	36.14
863.653	34.74
864.087	50.64
864.521	51.34
864.955	68.44
865.39	158.14
865.824	174.34
866.258	124.84
866.692	168.34
867.126	175.94
867.56	103.84
867.994	55.84
868.428	38.84
868.862	46.74
869.296	53.54
869.73	59.64
870.164	52.64
870.598	53.24
871.031	39.84
871.465	34.34
871.899	35.14
872.333	19.04
872.766	30.74
873.2	26.54
873.634	30.74
874.067	26.64
874.501	30.84
874.935	38.24
875.368	32.14
875.802	30.14
876.235	24.44
876.669	23.34
877.102	20.04
877.535	26.54
877.969	25.44
878.402	30.44
878.836	18.14
879.269	28.14
879.702	27.44
880.135	25.24
880.569	24.84
881.002	26.84
881.435	24.54
881.868	15.44
882.301	26.94
882.734	17.64
883.167	20.14
883.601	18.34
884.034	20.34
884.467	9.54
884.899	15.74
885.332	13.74
885.765	8.64
886.198	19.64
886.631	19.74
887.064	20.44
887.497	22.14
887.929	24.74
888.362	20.14
888.795	18.64
889.228	13.04
889.66	21.74
890.093	16.24
890.526	20.44
890.958	14.14
891.391	19.24
891.823	22.14
892.256	18.84
892.688	12.34
893.121	19.24
893.553	17.34
893.985	25.04
894.418	18.24
894.85	15.14
895.282	17.94
895.715	14.94
896.147	18.24
896.579	17.84
897.011	15.04
897.444	21.24
897.876	12.34
898.308	17.34
898.74	15.24
899.172	14.54
899.604	21.74
900.036	21.54
900.468	19.44
900.9	18.04
901.332	17.04
901.764	13.74
902.196	16.54
902.628	17.04
903.06	14.64
903.491	32.84
903.923	24.84
904.355	17.54
904.787	25.84
905.218	15.54
905.65	23.74
906.082	11.34
906.513	14.94
906.945	16.44
907.376	20.74
907.808	23.44
908.239	20.14
908.671	24.84
909.102	27.74
909.534	24.74
909.965	51.04
910.397	99.34
910.828	321.64
911.259	470.64
911.691	217.74
912.122	108.94
912.553	50.94
912.984	33.24
913.415	24.94
913.847	26.24
914.278	22.14
914.709	14.94
915.14	20.34
915.571	19.84
916.002	15.44
916.433	21.04
916.864	19.24
917.295	10.14
917.726	16.74
918.157	14.44
918.587	29.74
919.018	22.64
919.449	24.84
919.88	16.44
920.311	33.54
920.741	46.84
921.172	174.34
921.603	154.44
922.033	72.94
922.464	44.74
922.895	22.44
923.325	23.14
923.756	12.44
924.186	20.14
924.617	30.04
925.047	48.34
925.478	54.34
925.908	49.54
926.338	32.54
926.769	20.04
927.199	24.64
927.629	10.64
928.06	16.64
928.49	11.04
928.92	12.84
929.35	8.04
929.78	15.04
930.21	9.94
930.641	10.04
931.071	1.44
931.501	5.14
931.931	12.84
932.361	7.54
932.791	5.94
933.221	3.14
933.651	10.74
934.08	16.64
934.51	24.64
934.94	11.04
935.37	4.84
935.8	8.34
936.229	6.64
936.659	15.44
937.089	-0.26
937.519	16.64
937.948	18.34
938.378	14.64
938.807	5.34
939.237	3.04
939.666	7.64
940.096	-6.46
940.525	1.04
940.955	2.34
941.384	2.84
941.814	-2.16
942.243	-3.06
942.672	1.54
943.102	-5.16
943.531	4.84
943.96	1.64
944.39	2.24
944.819	0.84
945.248	5.94
945.677	-0.76
946.106	5.24
946.535	2.74
946.964	3.24
947.393	3.74
947.822	-1.86
948.251	1.14
948.68	10.84
949.109	6.84
949.538	9.44
949.967	2.24
950.396	-4.66
950.825	-0.26
951.254	2.14
951.682	-7.46
952.111	3.54
952.54	1.84
952.969	-1.16
953.397	-5.26
953.826	0.14
954.254	-3.86
954.683	2.84
955.112	-4.56
955.54	0.84
955.969	10.24
956.397	0.44
956.826	-3.26
957.254	9.54
957.682	1.74
958.111	7.24
958.539	-2.16
958.967	0.54
959.396	-0.16
959.824	0.54
960.252	0.24
960.68	-3.76
961.109	-4.96
961.537	-1.06
961.965	0.64
962.393	-1.26
962.821	-4.16
963.249	-2.96
963.677	5.64
964.105	5.64
964.533	44.84
964.961	32.54
965.389	20.04
965.817	12.54
966.245	1.44
966.672	-1.86
967.1	-3.96
967.528	-1.56
967.956	-0.16
968.383	1.54
968.811	-0.96
969.239	2.94
969.666	-4.66
970.094	4.24
970.522	-3.46
970.949	-5.36
971.377	-5.36
971.804	-3.86
972.232	3.44
972.659	-1.16
973.087	-1.56
973.514	-6.66
973.941	-7.06
974.369	-0.16
974.796	-4.76
975.223	-2.46
975.651	4.94
976.078	8.74
976.505	4.24
976.932	12.04
977.359	17.34
977.786	19.04
978.214	-1.66
978.641	-0.76
979.068	-0.56
979.495	-4.96
979.922	2.14
980.349	2.04
980.776	6.14
981.202	-1.96
981.629	8.44
982.056	6.54
982.483	1.14
982.91	-0.56
983.337	-6.76
983.763	3.94
984.19	-2.56
984.617	-0.66
985.043	-11.06
985.47	2.34
985.897	-5.26
986.323	-3.66
986.75	7.04
987.176	0.04
987.603	2.54
988.029	0.64
988.456	-4.66
988.882	3.84
989.308	-10.46
989.735	-5.76
990.161	-0.46
990.587	-6.66
991.014	-0.26
991.44	9.94
991.866	2.94
992.292	-5.76
992.719	-5.46
993.145	-3.16
993.571	-10.26
993.997	-5.36
994.423	-4.76
994.849	-6.66
995.275	1.64
995.701	-1.26
996.127	-6.96
996.553	1.54
996.979	-4.36
997.405	-6.96
997.83	-4.46
998.256	-7.36
998.682	-3.76
999.108	-2.86
999.534	1.84
999.959	-1.56
1000.385	-6.06
1000.811	0.14
1001.236	-10.16
1001.662	-4.56
1002.087	-7.46
1002.513	4.74
1002.938	-0.56
1003.364	-0.66
1003.789	-2.16
1004.215	-2.16
1004.64	-3.76
1005.066	-0.26
1005.491	-4.56
1005.916	-2.56
1006.342	-0.96
1006.767	-4.96
1007.192	8.14
1007.617	-0.96
1008.042	-6.26
1008.468	-1.76
1008.893	-0.76
1009.318	1.24
1009.743	-1.26
1010.168	2.44
1010.593	2.34
1011.018	-8.16
1011.443	-7.16
1011.868	1.44
1012.293	-2.16
1012.718	-3.46
1013.143	-1.76
1013.567	3.04
1013.992	-0.66
1014.417	-13.16
1014.842	-2.16
1015.267	-0.06
1015.691	-5.76
1016.116	5.34
1016.541	-3.96
1016.965	5.34
1017.39	3.74
1017.814	0.34
1018.239	-2.96
1018.663	-8.36
1019.088	-6.76
1019.512	-1.06
1019.937	-1.36
1020.361	-5.96
1020.785	-9.06
1021.21	-5.56
1021.634	0.54
1022.058	1.64
1022.483	1.24
1022.907	-3.96
1023.331	-0.96
1023.755	-2.16
1024.179	-5.36
1024.604	-6.06
1025.028	-7.26
1025.452	-1.36
1025.876	1.34
1026.3	-4.66
1026.724	-12.16
1027.148	-4.26
1027.572	-4.36
1027.996	-5.16
1028.42	-2.96
1028.843	-5.36
1029.267	-4.16
1029.691	-3.36
1030.115	-13.96
1030.539	-5.26
1030.962	-2.06
1031.386	-13.16
1031.81	-2.26
1032.233	-0.16
1032.657	-6.16
1033.08	-3.56
1033.504	-6.36
1033.927	2.44
1034.351	5.24
1034.774	-2.56
1035.198	0.44
1035.621	-3.96
1036.045	-4.36
1036.468	1.64
1036.891	-6.26
1037.315	-8.66
1037.738	-9.66
1038.161	0.74
1038.584	-6.06
1039.008	-5.36
1039.431	-2.26
1039.854	4.54
1040.277	-8.96
1040.7	-6.86
1041.123	-1.66
1041.546	-12.66
1041.969	-3.46
1042.392	-6.56
1042.815	-3.56
1043.238	-5.96
1043.661	2.44
1044.084	-7.86
1044.507	-7.06
1044.93	-8.36
1045.352	-6.16
1045.775	2.24
1046.198	-4.16
1046.621	3.44
1047.043	0.34
1047.466	9.04
1047.889	-6.36
1048.311	-5.96
1048.734	-9.86
1049.156	-1.46
1049.579	-2.96
1050.001	-4.26
1050.424	-1.16
1050.846	-1.26
1051.269	2.64
1051.691	-8.76
1052.113	-3.56
1052.536	1.24
1052.958	-5.76
1053.38	-8.06
1053.802	-5.76
1054.225	-2.96
1054.647	-8.76
1055.069	-6.56
1055.491	3.34
1055.913	-10.26
1056.335	0.04
1056.757	-7.06
1057.179	-8.46
1057.601	-2.16
1058.023	-3.36
1058.445	-3.86
1058.867	-0.96
1059.289	-5.16
1059.711	-10.56
1060.133	-4.56
1060.555	-1.56
1060.976	-10.96
1061.398	-6.06
1061.82	-2.26
1062.241	-1.76
1062.663	-2.16
1063.085	-7.66
1063.506	4.64
1063.928	-5.16
1064.35	-6.86
1064.771	-9.56
1065.193	-3.26
1065.614	-4.06
1066.035	-4.96
1066.457	-3.46
1066.878	3.24
1067.3	-0.96
1067.721	-4.56
1068.142	-14.86
1068.564	-6.66
1068.985	-3.66
1069.406	1.64
1069.827	-9.26
1070.248	-2.66
1070.67	-11.46
1071.091	-2.76
1071.512	-2.86
1071.933	-5.26
1072.354	-8.16
1072.775	-5.16
1073.196	-4.26
1073.617	-4.46
1074.038	-7.36
1074.459	-9.46
1074.88	-9.36
1075.3	0.44
1075.721	-1.16
1076.142	-1.96
1076.563	0.24
1076.983	-9.56
1077.404	-0.66
1077.825	-13.26
1078.246	-13.16
1078.666	-13.36
1079.087	-5.56
1079.507	-7.46
1079.928	-4.06
1080.348	-2.16
1080.769	-5.06
1081.189	3.94
1081.61	-1.36
1082.03	-8.76
1082.451	-8.56
1082.871	-5.26
1083.291	-6.46
1083.711	-9.86
1084.132	-0.76
1084.552	-4.76
1084.972	0.44
1085.392	-12.06
1085.813	-12.86
1086.233	-7.36
1086.653	-6.56
1087.073	-5.16
1087.493	-5.96
1087.913	-9.56
1088.333	-8.36
1088.753	-4.56
1089.173	-1.56
1089.593	-3.46
1090.013	-1.66
1090.433	1.14
1090.852	3.54
1091.272	-3.26
1091.692	-1.66
1092.112	0.84
1092.531	-10.76
1092.951	-13.26
1093.371	-4.56
1093.79	4.54
1094.21	-6.66
1094.63	-3.26
1095.049	-6.86
1095.469	-5.66
1095.888	2.54
1096.308	-2.76
1096.727	1.44
1097.146	1.14
1097.566	0.94
1097.985	-5.36
1098.405	-2.86
1098.824	0.84
1099.243	-8.96
1099.662	-4.46
1100.082	-3.66
1100.501	0.04
1100.92	-8.06
1101.339	-3.36
1101.758	-8.56
