Data from 20171114-ORNL-Ar_H_NY_Subt18_08-04-41-371.txt Node
Date: Tue Nov 14 08:04:41 EST 2017
User: Ender
Spectrometer: HR+D1039
Trigger mode: 0
Integration Time (sec): 2.730000E-2
Scans to average: 10
Electric dark correction enabled: true
Nonlinearity correction enabled: false
Boxcar width: 0
XAxis mode: Wavelengths
Number of Pixels in Spectrum: 2048
>>>>>Begin Spectral Data<<<<<
187.836	-9.6
188.309	-9.6
188.782	-9.6
189.255	3.5
189.728	-3.3
190.201	5.5
190.674	1.2
191.147	3.7
191.619	-4.4
192.092	-2.8
192.565	7.2
193.038	0.7
193.511	-2.4
193.984	2
194.456	0.3
194.929	-0.2
195.402	-0.5
195.874	-0.9
196.347	-3.1
196.82	-7.2
197.292	9
197.765	-1.8
198.237	-10.2
198.71	-5.4
199.182	-4.5
199.655	-1
200.127	5.1
200.6	-4.2
201.072	-2.1
201.544	-9.3
202.017	-5.1
202.489	1.1
202.961	-1.7
203.433	-5
203.906	-3.4
204.378	-2.4
204.85	-4.9
205.322	-8.6
205.794	2.6
206.266	-0
206.739	-3.1
207.211	2.7
207.683	-7.6
208.155	-8.6
208.627	-11.6
209.099	-5.7
209.57	-8.5
210.042	-3.8
210.514	-6
210.986	-2.2
211.458	-7.4
211.93	-2.6
212.402	2.2
212.873	-7.4
213.345	-13.3
213.817	-16.3
214.288	-11.1
214.76	-6.4
215.232	1.1
215.703	-7.7
216.175	-8.4
216.646	-0.9
217.118	-1.2
217.589	-5.5
218.061	-3.1
218.532	-2.2
219.004	-3.9
219.475	-5.6
219.946	2
220.418	-9.3
220.889	1.4
221.36	1.2
221.832	-6.4
222.303	-9.2
222.774	-1.8
223.245	-10.9
223.717	-10.1
224.188	-5
224.659	-6.8
225.13	-4.5
225.601	-3.9
226.072	6.8
226.543	-0.7
227.014	0.8
227.485	-3
227.956	-5.5
228.427	-4.2
228.898	-0.5
229.369	-0.4
229.839	-9.3
230.31	-3.2
230.781	-0.4
231.252	3.1
231.722	0.2
232.193	-0.9
232.664	-4.1
233.135	1.8
233.605	-1.1
234.076	-3.6
234.546	-1.4
235.017	4.5
235.487	-2.6
235.958	-5.1
236.428	-6.6
236.899	2.9
237.369	0.1
237.84	-3.8
238.31	4.1
238.78	3.8
239.251	4.4
239.721	14.2
240.191	5.5
240.662	4.4
241.132	2.9
241.602	-5.8
242.072	-3
242.542	6.1
243.013	5.3
243.483	3.8
243.953	1.1
244.423	1.8
244.893	0.3
245.363	11.3
245.833	5.4
246.303	1
246.773	8.4
247.243	9.4
247.712	7.2
248.182	11.9
248.652	3.3
249.122	1.1
249.592	11.8
250.061	24.7
250.531	41.9
251.001	21.3
251.471	21
251.94	16.5
252.41	3.4
252.879	4.1
253.349	14.3
253.818	9.7
254.288	5.6
254.757	7.6
255.227	1
255.696	0.1
256.166	4.6
256.635	12.3
257.105	9.3
257.574	9.1
258.043	9.8
258.513	10.5
258.982	20.8
259.451	9.9
259.92	8.9
260.389	11
260.859	12.6
261.328	10.7
261.797	22.1
262.266	8.2
262.735	10.3
263.204	6.8
263.673	2.2
264.142	6.9
264.611	-7.7
265.08	0.2
265.549	1
266.018	5.7
266.487	-6.8
266.955	-0.6
267.424	0.9
267.893	5.8
268.362	-1.2
268.83	8.5
269.299	17.1
269.768	2.1
270.236	14.6
270.705	3.1
271.174	7.7
271.642	7.1
272.111	9.1
272.579	15
273.048	19
273.516	32.4
273.985	23.5
274.453	29.7
274.922	20.4
275.39	11.5
275.858	7.7
276.327	4.8
276.795	24.2
277.263	10.7
277.731	27.6
278.2	52
278.668	61.7
279.136	48.9
279.604	18.7
280.072	17.2
280.54	11.8
281.008	7.9
281.477	9
281.945	13.2
282.413	15.5
282.881	10.6
283.348	13.9
283.816	19.4
284.284	15.6
284.752	23.6
285.22	14.7
285.688	14.5
286.156	16.6
286.623	44.9
287.091	52.4
287.559	30.5
288.026	16.9
288.494	19.4
288.962	6.5
289.429	13.1
289.897	16.5
290.364	10.9
290.832	17
291.3	24.1
291.767	15.7
292.234	21.6
292.702	16.7
293.169	18.1
293.637	20.6
294.104	20.5
294.571	10.1
295.039	14.6
295.506	15.7
295.973	15.1
296.44	18
296.908	16.6
297.375	23.4
297.842	20.4
298.309	18.1
298.776	13.2
299.243	22
299.71	13.4
300.177	24.1
300.644	22.3
301.111	28
301.578	28.5
302.045	18.7
302.512	23.6
302.979	24.9
303.446	16.4
303.913	20.8
304.379	21.7
304.846	24.8
305.313	25.7
305.78	25.9
306.246	25.9
306.713	31.7
307.18	25
307.646	25.8
308.113	33.2
308.579	21.6
309.046	26.2
309.512	23.2
309.979	17.7
310.445	25.7
310.912	25.1
311.378	35.6
311.845	30.6
312.311	27.5
312.777	32.8
313.244	28.1
313.71	33.5
314.176	36.4
314.642	36.6
315.109	34.7
315.575	33.6
316.041	41.1
316.507	42.7
316.973	39.9
317.439	37.9
317.905	33.4
318.371	41.3
318.837	34.4
319.303	39.1
319.769	36.4
320.235	41
320.701	36.8
321.167	37.7
321.633	36.2
322.099	43.5
322.564	51.4
323.03	43
323.496	38
323.962	39.9
324.427	42.6
324.893	41.4
325.359	47.2
325.824	40
326.29	39.2
326.755	38.6
327.221	39.5
327.686	40.2
328.152	47
328.617	47.5
329.083	43.8
329.548	55.3
330.014	52.3
330.479	47.8
330.944	47.6
331.41	46.2
331.875	44.9
332.34	43.1
332.805	49.1
333.271	52.5
333.736	45.1
334.201	47
334.666	48.5
335.131	55.4
335.596	48.4
336.061	57.6
336.526	42.6
336.991	48.4
337.456	53.6
337.921	54.5
338.386	47.9
338.851	42.5
339.316	50.6
339.781	47.2
340.246	49.7
340.711	47.8
341.175	45.4
341.64	49.6
342.105	52.7
342.569	61.1
343.034	53.8
343.499	55.3
343.963	52
344.428	59.6
344.893	63.6
345.357	65.6
345.822	61.2
346.286	69.5
346.751	73.6
347.215	69.5
347.679	74.2
348.144	102.3
348.608	86.1
349.073	69.3
349.537	78
350.001	79.6
350.465	94.8
350.93	81.3
351.394	82.8
351.858	69.8
352.322	89.5
352.786	88.5
353.25	103
353.715	121.7
354.179	104
354.643	119.4
355.107	130.6
355.571	107.9
356.035	103.1
356.498	114.9
356.962	123.8
357.426	125.2
357.89	120.6
358.354	91.5
358.818	87.7
359.281	82.9
359.745	71.5
360.209	67.2
360.673	77
361.136	78
361.6	84.3
362.064	79.5
362.527	83.4
362.991	92.2
363.454	80.5
363.918	76.2
364.381	75.4
364.845	83.8
365.308	87
365.772	91.5
366.235	86.2
366.698	85.5
367.162	95.3
367.625	90.4
368.088	90.4
368.552	91.7
369.015	94.2
369.478	102.4
369.941	101.4
370.404	95.1
370.867	103.5
371.331	105.7
371.794	115.1
372.257	106.8
372.72	115.8
373.183	107.7
373.646	108.4
374.109	101.1
374.572	111.5
375.035	106.1
375.497	104.7
375.96	103.2
376.423	106.9
376.886	114.6
377.349	105.8
377.811	101
378.274	102.6
378.737	105.5
379.199	106.1
379.662	105.9
380.125	115.7
380.587	117.6
381.05	117.3
381.512	133.9
381.975	134.3
382.437	126
382.9	127.5
383.362	126.6
383.825	136.6
384.287	148.3
384.75	133.8
385.212	143.7
385.674	140
386.136	135.5
386.599	124.2
387.061	128.8
387.523	123.3
387.985	135.8
388.447	142.1
388.91	141.8
389.372	155.9
389.834	151.7
390.296	144.7
390.758	154.3
391.22	168.7
391.682	202.7
392.144	281
392.606	225.6
393.068	162.3
393.529	166.2
393.991	147
394.453	145.6
394.915	153.7
395.377	189.2
395.838	207
396.3	155.2
396.762	139.8
397.224	134.7
397.685	134.8
398.147	124
398.608	130.7
399.07	126.7
399.531	133.1
399.993	132
400.454	141.4
400.916	143.5
401.377	141
401.839	145.9
402.3	153.9
402.762	165.3
403.223	174.2
403.684	169.9
404.145	158
404.607	161.8
405.068	161.3
405.529	166.5
405.99	188.1
406.451	173.7
406.913	169.2
407.374	154.3
407.835	157.8
408.296	164.2
408.757	170.8
409.218	180.3
409.679	175.6
410.14	177.4
410.601	175.8
411.062	174
411.522	184.5
411.983	183.6
412.444	173.2
412.905	180.3
413.366	182.7
413.826	193.1
414.287	211.4
414.748	264.6
415.208	236.7
415.669	210.5
416.13	200.4
416.59	199.3
417.051	213.8
417.511	214.9
417.972	234.1
418.432	238.5
418.893	283.6
419.353	245
419.814	195.5
420.274	175.7
420.734	174.8
421.195	197.4
421.655	186.2
422.115	190
422.576	184.3
423.036	199
423.496	203.9
423.956	211.5
424.416	228.1
424.876	259.9
425.336	254.3
425.797	258.8
426.257	250.9
426.717	231.1
427.177	225.7
427.637	211
428.097	232.2
428.556	234
429.016	258.2
429.476	260.2
429.936	263.7
430.396	267.3
430.856	281.7
431.315	306.6
431.775	338.9
432.235	374.9
432.694	340.9
433.154	354.1
433.614	374.4
434.073	326.6
434.533	283.6
434.993	264.3
435.452	271.2
435.912	282.4
436.371	277.4
436.83	277
437.29	261
437.749	234
438.209	238.6
438.668	267.1
439.127	273.3
439.587	254.4
440.046	244.9
440.505	256
440.964	267.6
441.424	316.8
441.883	300.9
442.342	255.5
442.801	217.6
443.26	209.1
443.719	216.9
444.178	211.5
444.637	208.5
445.096	210.2
445.555	222.7
446.014	222.5
446.473	219.7
446.932	227
447.391	214.7
447.849	220.2
448.308	210.3
448.767	217.6
449.226	226.5
449.685	231.4
450.143	245.5
450.602	231.9
451.061	226.3
451.519	230.4
451.978	224.7
452.436	222.8
452.895	229.4
453.353	242.4
453.812	232.2
454.27	235.7
454.729	230.5
455.187	241.6
455.646	235.4
456.104	241.8
456.562	253.8
457.021	255
457.479	252.7
457.937	263.7
458.395	254.1
458.854	237.6
459.312	248
459.77	263.3
460.228	249.9
460.686	230.6
461.144	236.5
461.602	234.2
462.06	232.8
462.518	244.4
462.976	238.9
463.434	250.3
463.892	251.9
464.35	265.5
464.808	285.3
465.266	265.9
465.724	254.4
466.181	265.3
466.639	258.9
467.097	283.2
467.555	295.9
468.012	291.1
468.47	299.4
468.928	312
469.385	332.3
469.843	334.5
470.3	331.8
470.758	346.5
471.215	362.7
471.673	395.9
472.13	396.8
472.588	399.4
473.045	353
473.503	366
473.96	385.8
474.417	392.1
474.875	422.4
475.332	456.6
475.789	448.5
476.246	444
476.704	469.4
477.161	479.2
477.618	499.4
478.075	542.8
478.532	590.5
478.989	663.2
479.446	768.4
479.903	745.4
480.36	780
480.817	834.2
481.274	933.4
481.731	1038.3
482.188	1134.6
482.645	1258.3
483.102	1358
483.558	1484.8
484.015	1546.4
484.472	1517.1
484.929	1469.1
485.385	1424.2
485.842	1381.1
486.299	1317.6
486.755	1248.7
487.212	1039.9
487.668	897.1
488.125	837.2
488.582	762.9
489.038	712.4
489.494	680.2
489.951	663
490.407	647.4
490.864	621
491.32	617.9
491.776	625.1
492.233	627.8
492.689	589.2
493.145	587
493.602	580.9
494.058	593.6
494.514	589.2
494.97	617.4
495.426	621.5
495.882	603.3
496.338	595.5
496.794	606.4
497.251	600.3
497.707	619.7
498.163	612.9
498.618	624.1
499.074	620.7
499.53	649.9
499.986	652.8
500.442	629.8
500.898	601.9
501.354	612.6
501.809	615.2
502.265	612.8
502.721	626.9
503.177	633.8
503.632	635.9
504.088	648.2
504.543	682.8
504.999	684.3
505.455	637.8
505.91	609
506.366	612.7
506.821	605.3
507.277	589.6
507.732	600.3
508.187	596.7
508.643	604.4
509.098	609.7
509.553	628.8
510.009	636.3
510.464	640.3
510.919	661.5
511.375	667.1
511.83	681.3
512.285	697.5
512.74	729.2
513.195	744.1
513.65	732.4
514.105	739.6
514.56	737.4
515.015	764.7
515.47	782.2
515.925	765.4
516.38	763.1
516.835	758.1
517.29	748.7
517.745	745.8
518.2	729.6
518.655	710.5
519.109	711.3
519.564	715.2
520.019	704.4
520.474	697.4
520.928	691.9
521.383	684.4
521.838	681.8
522.292	676
522.747	678
523.201	680.6
523.656	662.5
524.11	651.4
524.565	657.7
525.019	655.9
525.474	663.5
525.928	669.4
526.382	661
526.837	659.9
527.291	676.1
527.745	671.8
528.2	670.8
528.654	660.5
529.108	642.7
529.562	653.5
530.016	654.2
530.47	658.4
530.925	664.6
531.379	655.7
531.833	674.9
532.287	661.4
532.741	666.7
533.195	667.1
533.649	684.9
534.103	673.3
534.556	680.8
535.01	671.4
535.464	674.1
535.918	689.4
536.372	678.5
536.826	679.2
537.279	666.5
537.733	671.8
538.187	674.6
538.64	676.4
539.094	682.2
539.548	681.7
540.001	682.2
540.455	684.7
540.908	701.5
541.362	701.4
541.815	706.8
542.269	713.6
542.722	721.6
543.175	722.3
543.629	736
544.082	745.3
544.536	744.9
544.989	742.3
545.442	755.8
545.895	750.6
546.349	743.8
546.802	750
547.255	751
547.708	753.8
548.161	770.8
548.614	770
549.067	784.8
549.52	776.6
549.973	770.2
550.426	761.2
550.879	747
551.332	749.8
551.785	762.4
552.238	752.1
552.691	771.5
553.144	789.9
553.596	793.5
554.049	811.5
554.502	832.5
554.955	863
555.407	846.4
555.86	841.2
556.313	834
556.765	822.8
557.218	829.4
557.67	823.1
558.123	824.8
558.576	827.2
559.028	825.1
559.48	824.6
559.933	825.6
560.385	790.9
560.838	760
561.29	734.1
561.742	723.1
562.195	712.3
562.647	700.7
563.099	721.8
563.551	710.8
564.004	734.6
564.456	720.1
564.908	716.2
565.36	689.9
565.812	681.6
566.264	680.9
566.716	669.6
567.168	666
567.62	663.8
568.072	658.2
568.524	643.1
568.976	635.2
569.428	618.3
569.88	629.2
570.332	631.2
570.784	640.6
571.235	633.1
571.687	639.9
572.139	655.6
572.59	656.2
573.042	664.5
573.494	658.6
573.945	651.5
574.397	633.9
574.849	639.3
575.3	645.3
575.752	638.9
576.203	633.9
576.655	640.6
577.106	626
577.557	604.4
578.009	612.5
578.46	614.9
578.912	615
579.363	610
579.814	612.4
580.265	606.5
580.717	626.8
581.168	620.3
581.619	622.4
582.07	633.7
582.521	626.5
582.972	621.5
583.423	625.5
583.875	634.6
584.326	643.4
584.777	680.6
585.227	742.7
585.678	839
586.129	918
586.58	980.4
587.031	1066.1
587.482	1212.1
587.933	1376.3
588.384	1197.2
588.834	889.2
589.285	734.7
589.736	719.6
590.186	708.1
590.637	707.9
591.088	674.9
591.538	676.3
591.989	669.5
592.439	665.5
592.89	654.1
593.34	645.3
593.791	648.6
594.241	641.1
594.692	645.3
595.142	645.2
595.593	638.1
596.043	648
596.493	651.3
596.943	646.2
597.394	659.1
597.844	649.6
598.294	659.6
598.744	685.8
599.195	699.9
599.645	745
600.095	766.3
600.545	824.6
600.995	871
601.445	931.8
601.895	986.3
602.345	1032.9
602.795	1017.6
603.245	972.7
603.695	933.1
604.145	871.9
604.594	828.7
605.044	771.5
605.494	731.3
605.944	680.4
606.393	669.3
606.843	663.9
607.293	654.2
607.743	661.4
608.192	665.4
608.642	682.4
609.091	692.1
609.541	702.7
609.99	689.8
610.44	691.9
610.889	647.5
611.339	622.4
611.788	622
612.238	626
612.687	647.2
613.136	649.2
613.586	667.1
614.035	659.4
614.484	674.3
614.933	675
615.383	677.4
615.832	657.9
616.281	644.6
616.73	621.9
617.179	603.1
617.628	587.3
618.077	572.7
618.526	560.8
618.975	558.7
619.424	552.6
619.873	546.8
620.322	556.6
620.771	539.4
621.22	534.9
621.669	539.2
622.118	526.2
622.567	521
623.015	514.4
623.464	507.4
623.913	502.8
624.361	499
624.81	494.2
625.259	491.2
625.707	496.6
626.156	496.1
626.604	503.1
627.053	500.8
627.501	498
627.95	502.2
628.398	520.4
628.847	506.2
629.295	505.1
629.744	514.8
630.192	503.8
630.64	507.8
631.089	507.3
631.537	512
631.985	515.8
632.433	527.6
632.881	533.1
633.33	576.3
633.778	564.2
634.226	500.1
634.674	506.2
635.122	508.4
635.57	529.9
636.018	550.3
636.466	512.1
636.914	495.7
637.362	503.1
637.81	511.3
638.258	508.6
638.705	511
639.153	530.8
639.601	538.5
640.049	559.9
640.497	599.3
640.944	617.3
641.392	570.9
641.84	547.9
642.287	522.4
642.735	507.2
643.182	507.2
643.63	506.4
644.078	513.5
644.525	531.1
644.973	524.7
645.42	525.6
645.867	551.5
646.315	554.9
646.762	586.2
647.21	600.9
647.657	628.2
648.104	661.6
648.551	686.9
648.999	731.3
649.446	798.6
649.893	868.7
650.34	1012.8
650.787	1211.8
651.234	1497.2
651.682	1941
652.129	2663.5
652.576	3812.2
653.023	5648.8
653.47	7775.7
653.917	9848.3
654.363	11501.4
654.81	12887.4
655.257	12259.3
655.704	7934.9
656.151	4680.1
656.598	3023.9
657.044	2153
657.491	1648.1
657.938	1321.6
658.385	1100.2
658.831	952.3
659.278	847.2
659.724	748
660.171	686.1
660.618	651
661.064	604.8
661.511	578.1
661.957	567.6
662.404	559.6
662.85	562.7
663.296	535.9
663.743	494.7
664.189	467.4
664.635	466
665.082	461.4
665.528	458.1
665.974	454.8
666.42	456.7
666.867	449
667.313	431.1
667.759	423.5
668.205	410.8
668.651	433.7
669.097	424.9
669.543	430.5
669.989	412.2
670.435	391.5
670.881	382
671.327	391.9
671.773	409.6
672.219	422.7
672.665	475.7
673.11	503.4
673.556	541.8
674.002	580.2
674.448	579.6
674.893	483.1
675.339	408
675.785	384.8
676.23	364.6
676.676	339.6
677.122	327
677.567	325.7
678.013	316.6
678.458	308.8
678.904	309.4
679.349	302.6
679.794	308.7
680.24	293.3
680.685	309.8
681.131	306.8
681.576	304.2
682.021	302.8
682.466	296.9
682.912	294.3
683.357	299.3
683.802	329.6
684.247	359.8
684.692	391.8
685.137	426.7
685.583	463.9
686.028	488.6
686.473	453.8
686.918	387.5
687.363	357.1
687.807	342.9
688.252	315.5
688.697	309.6
689.142	293.4
689.587	288.2
690.032	283.5
690.477	290.4
690.921	303.9
691.366	325.1
691.811	353.2
692.255	373.3
692.7	402.6
693.145	419.5
693.589	586.1
694.034	945.2
694.478	1317.1
694.923	1523.2
695.367	2018.6
695.812	1052.8
696.256	422.5
696.701	323.8
697.145	296.5
697.59	287
698.034	273.8
698.478	286.3
698.922	278.7
699.367	285
699.811	290.1
700.255	302.9
700.699	330.4
701.143	362.3
701.588	412.8
702.032	442.5
702.476	446.9
702.92	423.2
703.364	416
703.808	532.2
704.252	866.2
704.696	1244.1
705.14	1447
705.584	1883.9
706.027	929.6
706.471	448.4
706.915	340.1
707.359	305.4
707.803	273.4
708.246	262.4
708.69	268.7
709.134	270.9
709.577	274.8
710.021	273.8
710.465	274.2
710.908	257.8
711.352	256
711.795	264.4
712.239	303.6
712.682	332.7
713.126	349.8
713.569	408
714.012	317.8
714.456	275.2
714.899	257.8
715.342	236.6
715.786	221.5
716.229	213
716.672	226.3
717.115	218.8
717.558	212.4
718.002	216.7
718.445	224.1
718.888	242.2
719.331	258.7
719.774	265.2
720.217	259.9
720.66	242.1
721.103	228
721.546	217.2
721.989	212.7
722.432	196.8
722.874	197
723.317	197.6
723.76	205.4
724.203	212.4
724.645	268
725.088	380.9
725.531	485.3
725.974	558.3
726.416	473.2
726.859	260.7
727.301	215.9
727.744	199.4
728.187	198
728.629	209
729.071	207.9
729.514	222.6
729.956	230
730.399	240
730.841	245.9
731.283	234.8
731.726	231.3
732.168	223.1
732.61	229.3
733.053	248
733.495	269.2
733.937	299.4
734.379	343.7
734.821	369.8
735.263	456.9
735.705	686.9
736.148	1309.7
736.59	2191.4
737.032	2695.3
737.474	2194.3
737.916	698.7
738.357	366
738.799	279.8
739.241	259.6
739.683	243.6
740.125	249.9
740.567	253.5
741.008	274.1
741.45	277.8
741.892	269.5
742.334	293
742.775	310.2
743.217	303.3
743.658	228.8
744.1	212.5
744.542	224.5
744.983	265.8
745.425	297.2
745.866	297.9
746.307	250.9
746.749	235.8
747.19	272.1
747.632	381.4
748.073	730
748.514	1557.1
748.956	2470.6
749.397	3088.7
749.838	2548.3
750.279	2620.9
750.72	1304.9
751.162	469.8
751.603	267.8
752.044	218.2
752.485	188
752.926	190.2
753.367	172.2
753.808	161
754.249	164.4
754.69	158.4
755.131	163.3
755.572	162.1
756.013	151.7
756.453	151.2
756.894	162.2
757.335	161.7
757.776	168.8
758.216	172.4
758.657	169.5
759.098	167.1
759.538	190.4
759.979	229.6
760.42	311.9
760.86	577.1
761.301	1503
761.741	3729.6
762.182	5722
762.622	4013.7
763.063	1135.9
763.503	461
763.943	293.3
764.384	283
764.824	343.8
765.264	383.3
765.705	260.9
766.145	175.7
766.585	165.5
767.025	148.3
767.465	156.1
767.906	209.2
768.346	272.7
768.786	297.6
769.226	221.6
769.666	260.6
770.106	505.6
770.546	1285.4
770.986	2311.5
771.426	2082.9
771.866	690.3
772.306	278.1
772.745	176.2
773.185	151.6
773.625	145.4
774.065	142.3
774.505	165
774.944	253
775.384	550.6
775.824	1054.4
776.263	1030.8
776.703	426
777.142	182.7
777.582	131.1
778.021	115.4
778.461	118.1
778.9	128.6
779.34	119.3
779.779	108
780.219	95.8
780.658	91.5
781.097	91.7
781.537	91.7
781.976	88.7
782.415	87.7
782.855	81.5
783.294	80.6
783.733	84.5
784.172	86.2
784.611	84.7
785.05	87.7
785.489	97.7
785.928	97
786.367	102
786.806	96.7
787.245	114
787.684	117.1
788.123	128.4
788.562	118
789.001	109.5
789.44	102.8
789.879	96.1
790.317	100.8
790.756	103.7
791.195	101.3
791.634	119.5
792.072	168.6
792.511	294.5
792.95	823.8
793.388	1847.1
793.827	1709.5
794.265	589
794.704	246.9
795.142	154.4
795.581	129.2
796.019	122.9
796.458	111
796.896	102.3
797.334	113.3
797.773	127
798.211	180.1
798.649	355.3
799.087	863.2
799.526	1392.7
799.964	1715.4
800.402	1790.1
800.84	659.3
801.278	258
801.716	159.7
802.154	132.4
802.592	124.8
803.03	115
803.468	111.3
803.906	118.7
804.344	132
804.782	123.1
805.22	111.8
805.658	104.5
806.096	126.7
806.533	130.2
806.971	153.2
807.409	188
807.847	260.4
808.284	542.5
808.722	1566.8
809.16	2863.1
809.597	2650.6
810.035	4677.9
810.472	5200.2
810.91	1849.5
811.347	688.8
811.785	347.6
812.222	217.3
812.66	160.3
813.097	144.4
813.535	119.9
813.972	110
814.409	101.8
814.846	91.1
815.284	88.4
815.721	85.6
816.158	90.9
816.595	100.2
817.032	157.1
817.47	171.6
817.907	150.5
818.344	127.2
818.781	97.2
819.218	85.2
819.655	103.9
820.092	154.6
820.529	189.6
820.966	146.3
821.403	112.7
821.839	93.3
822.276	82.5
822.713	103.6
823.15	114.7
823.587	97.1
824.023	126.5
824.46	247
824.897	755.5
825.333	1196.6
825.77	518.5
826.206	199.7
826.643	116.7
827.08	84.8
827.516	58.5
827.953	64.9
828.389	61.5
828.825	66.6
829.262	55.8
829.698	53.6
830.135	52.4
830.571	50.9
831.007	52.3
831.443	51.5
831.88	56.1
832.316	53.8
832.752	59
833.188	56.1
833.624	57.6
834.06	57.3
834.497	59.5
834.933	61.1
835.369	64.5
835.805	53.5
836.241	67.6
836.677	65.2
837.112	74.5
837.548	93.5
837.984	116.5
838.42	171.8
838.856	406.8
839.292	1292.7
839.727	2027.9
840.163	943.9
840.599	770.8
841.034	1734.4
841.47	1904.4
841.906	696.4
842.341	285.2
842.777	195.8
843.212	268.4
843.648	274
844.083	130
844.519	82.6
844.954	61.6
845.39	54.1
845.825	44.8
846.261	51.9
846.696	49.4
847.131	44.7
847.566	51.5
848.002	46
848.437	43.2
848.872	46.6
849.307	52.6
849.742	66.2
850.177	151.3
850.613	467.3
851.048	778.8
851.483	331.6
851.918	122.4
852.353	71.3
852.788	47.7
853.223	49.7
853.657	40.9
854.092	41.5
854.527	36.9
854.962	37.4
855.397	40.8
855.832	37.1
856.266	33.8
856.701	33.2
857.136	29.1
857.57	35.9
858.005	43.6
858.44	52.4
858.874	37
859.309	42.2
859.743	31.9
860.178	39.4
860.612	37.9
861.047	45.1
861.481	56.8
861.915	62.4
862.35	42.7
862.784	30.5
863.218	36.5
863.653	26.8
864.087	39.4
864.521	46.2
864.955	58.9
865.39	128.7
865.824	147.7
866.258	100.7
866.692	145
867.126	162.4
867.56	89.5
867.994	44.7
868.428	29.6
868.862	36.3
869.296	40.5
869.73	49.5
870.164	39.4
870.598	43.9
871.031	28.3
871.465	25.4
871.899	27.1
872.333	16.5
872.766	20.3
873.2	18.6
873.634	27.2
874.067	12
874.501	19
874.935	31.6
875.368	28.3
875.802	27.4
876.235	21.7
876.669	22.1
877.102	18
877.535	20.7
877.969	20.1
878.402	19.8
878.836	15.2
879.269	17.7
879.702	23.2
880.135	19.3
880.569	19.8
881.002	17.5
881.435	17.7
881.868	11.8
882.301	21.3
882.734	8.6
883.167	16
883.601	17.7
884.034	21.4
884.467	8.7
884.899	12
885.332	18.9
885.765	11.9
886.198	15.2
886.631	12.1
887.064	15.8
887.497	15.6
887.929	15.5
888.362	13.3
888.795	15.3
889.228	17.7
889.66	18.7
890.093	13.1
890.526	7.7
890.958	14.5
891.391	18.1
891.823	25.5
892.256	14.2
892.688	4.2
893.121	11.4
893.553	13.6
893.985	22.4
894.418	22
894.85	8.9
895.282	14.4
895.715	14
896.147	7.5
896.579	21.7
897.011	11.5
897.444	14.8
897.876	13.8
898.308	12.7
898.74	15.2
899.172	10.9
899.604	23.3
900.036	18.1
900.468	11
900.9	14.6
901.332	20.4
901.764	11.8
902.196	15.8
902.628	13.1
903.06	16.1
903.491	23.7
903.923	17.7
904.355	18
904.787	25.1
905.218	16.6
905.65	25.2
906.082	8.7
906.513	17.6
906.945	17
907.376	12.4
907.808	14.2
908.239	18.8
908.671	17.8
909.102	16.6
909.534	17.1
909.965	29.1
910.397	71.6
910.828	267.7
911.259	423.4
911.691	189.6
912.122	95.4
912.553	43.9
912.984	31.6
913.415	25.8
913.847	25.3
914.278	17.6
914.709	7.7
915.14	15.3
915.571	10.1
916.002	7.8
916.433	16.4
916.864	14.1
917.295	9.3
917.726	17.2
918.157	13.9
918.587	27
919.018	24.5
919.449	17.9
919.88	23.1
920.311	25.4
920.741	36.4
921.172	137.4
921.603	124.7
922.033	54.6
922.464	38.5
922.895	20.3
923.325	13.8
923.756	13.9
924.186	11.5
924.617	18.4
925.047	37.6
925.478	47.2
925.908	42.6
926.338	17.6
926.769	16.6
927.199	18.2
927.629	6.6
928.06	13.1
928.49	12.2
928.92	16.4
929.35	9.1
929.78	8
930.21	2.1
930.641	9.6
931.071	8.3
931.501	-0.9
931.931	5.1
932.361	9.3
932.791	1.5
933.221	-1.9
933.651	0.1
934.08	12.3
934.51	22.8
934.94	6.9
935.37	6.8
935.8	4.8
936.229	6.3
936.659	3.1
937.089	-1.4
937.519	14.8
937.948	26.1
938.378	9
938.807	8.3
939.237	6.9
939.666	4.7
940.096	-6.8
940.525	2.5
940.955	-3.3
941.384	2.7
941.814	-9.5
942.243	-1
942.672	4.3
943.102	-2.3
943.531	4
943.96	7.3
944.39	1.4
944.819	3.1
945.248	1.1
945.677	-3.2
946.106	5.9
946.535	1.5
946.964	0.8
947.393	0.8
947.822	-6.1
948.251	6.6
948.68	4.8
949.109	3.3
949.538	-1.4
949.967	-3.5
950.396	2.4
950.825	-1.3
951.254	1.1
951.682	-3.1
952.111	2.1
952.54	3.6
952.969	-7.6
953.397	-12.6
953.826	1.8
954.254	-7.8
954.683	1.7
955.112	-4.8
955.54	5.5
955.969	1
956.397	-1.3
956.826	-1.4
957.254	4.9
957.682	2.1
958.111	2.4
958.539	-5.7
958.967	5.8
959.396	2.7
959.824	-2.5
960.252	1.7
960.68	-6.5
961.109	-3.9
961.537	-1.4
961.965	-2.2
962.393	-1.6
962.821	-4.6
963.249	-0.8
963.677	-1.3
964.105	1.6
964.533	43.4
964.961	39.2
965.389	19.2
965.817	5.6
966.245	3.5
966.672	4.3
967.1	-10.9
967.528	-6.4
967.956	-3.3
968.383	-4.8
968.811	-2.5
969.239	-3.5
969.666	-7.9
970.094	-2.6
970.522	-2.3
970.949	-2.5
971.377	-8.3
971.804	-3.2
972.232	-2.2
972.659	-2.1
973.087	-1.9
973.514	-2.4
973.941	-6.1
974.369	2.3
974.796	4.8
975.223	-3.8
975.651	-5.3
976.078	-0.1
976.505	-4.9
976.932	-2.9
977.359	5.7
977.786	15.7
978.214	-0.9
978.641	-2.5
979.068	-5.8
979.495	-3.6
979.922	4.4
980.349	-0.8
980.776	-0.3
981.202	-1.4
981.629	5.7
982.056	1.9
982.483	-0.3
982.91	3.4
983.337	-3.3
983.763	5
984.19	-5.2
984.617	-3
985.043	-7.5
985.47	4.3
985.897	-5
986.323	-5.8
986.75	0.1
987.176	-2.8
987.603	-0.4
988.029	-0.6
988.456	-0.6
988.882	-0.6
989.308	-4.4
989.735	-3.7
990.161	7
990.587	-7.7
991.014	-0.1
991.44	4.5
991.866	-2.7
992.292	-8
992.719	-0
993.145	10.4
993.571	-8.5
993.997	0.6
994.423	-2.3
994.849	-3.6
995.275	-1.2
995.701	3.1
996.127	-1.4
996.553	5.5
996.979	2.6
997.405	-2
997.83	-1.8
998.256	-4.4
998.682	-4.3
999.108	-8.9
999.534	4.6
999.959	1.9
1000.385	0.1
1000.811	-0.5
1001.236	-6.2
1001.662	-8.4
1002.087	-11.6
1002.513	0.7
1002.938	-2.9
1003.364	1
1003.789	-1.6
1004.215	-1
1004.64	1.3
1005.066	4.1
1005.491	0.8
1005.916	-2.7
1006.342	-1.1
1006.767	-11.3
1007.192	2.5
1007.617	-4.3
1008.042	-7.1
1008.468	-6.2
1008.893	-7.5
1009.318	-4
1009.743	-5.1
1010.168	1.7
1010.593	2.2
1011.018	-3
1011.443	0.2
1011.868	4.6
1012.293	-1.5
1012.718	-9.9
1013.143	9.5
1013.567	-6
1013.992	-2.8
1014.417	-11.7
1014.842	-0.6
1015.267	-8.1
1015.691	-4.3
1016.116	2.5
1016.541	-4.2
1016.965	-1.7
1017.39	1.6
1017.814	-7.1
1018.239	-0.7
1018.663	-4
1019.088	-14.2
1019.512	-4.1
1019.937	-2.2
1020.361	4.7
1020.785	-7.2
1021.21	-6.3
1021.634	-0.9
1022.058	-0.5
1022.483	0.8
1022.907	-5.4
1023.331	-4.9
1023.755	-2.9
1024.179	-1.2
1024.604	-1.8
1025.028	1.6
1025.452	-4.8
1025.876	-4
1026.3	1.6
1026.724	-18.8
1027.148	-2.9
1027.572	-7.2
1027.996	-3.6
1028.42	-4.5
1028.843	-7.4
1029.267	-1.9
1029.691	-3.7
1030.115	-7.5
1030.539	-5.3
1030.962	-7
1031.386	-10.9
1031.81	2.6
1032.233	-2
1032.657	1.8
1033.08	3.1
1033.504	-1.8
1033.927	-7.2
1034.351	-4.3
1034.774	-6.6
1035.198	1.5
1035.621	-4.1
1036.045	-4.4
1036.468	2.2
1036.891	-11.8
1037.315	-12.4
1037.738	-14.9
1038.161	-0.6
1038.584	-4.9
1039.008	-7
1039.431	-1.2
1039.854	-0
1040.277	-10.1
1040.7	-8.9
1041.123	-1.9
1041.546	-4
1041.969	-2.8
1042.392	-6.8
1042.815	-4.2
1043.238	2.6
1043.661	2.8
1044.084	-7.5
1044.507	-1.1
1044.93	-7.8
1045.352	-8.2
1045.775	-6.6
1046.198	1.7
1046.621	-5.7
1047.043	0.3
1047.466	8.7
1047.889	0.3
1048.311	-4.7
1048.734	-4.1
1049.156	-3.8
1049.579	-3.5
1050.001	-1.7
1050.424	-3
1050.846	-3.3
1051.269	-7.7
1051.691	-4.1
1052.113	-9.6
1052.536	-0
1052.958	-0.1
1053.38	-5.1
1053.802	-9.8
1054.225	-1.7
1054.647	-8.2
1055.069	-7.2
1055.491	6.9
1055.913	-6.2
1056.335	-4
1056.757	-6
1057.179	-3.5
1057.601	-0.8
1058.023	-2.7
1058.445	-4.9
1058.867	0.6
1059.289	-1.2
1059.711	-5.8
1060.133	-1.6
1060.555	-7.8
1060.976	-7.3
1061.398	-7.7
1061.82	-6.3
1062.241	-4.4
1062.663	-9.4
1063.085	-2.6
1063.506	-0.2
1063.928	-4.5
1064.35	-8.2
1064.771	-11.8
1065.193	-2.4
1065.614	-11.4
1066.035	0.2
1066.457	-3.8
1066.878	-2.2
1067.3	-8.5
1067.721	-0.8
1068.142	-5.4
1068.564	-3.2
1068.985	-7.9
1069.406	-9.1
1069.827	-7.5
1070.248	-2.2
1070.67	-7.3
1071.091	-13.8
1071.512	-6.2
1071.933	-3.5
1072.354	-2.6
1072.775	-8.2
1073.196	-7.6
1073.617	-1.8
1074.038	-4.7
1074.459	-3.6
1074.88	-10.4
1075.3	-2.8
1075.721	-4.2
1076.142	-3.7
1076.563	3.1
1076.983	-15.2
1077.404	-5.9
1077.825	-5.8
1078.246	-6.1
1078.666	-10
1079.087	-5.1
1079.507	-5.2
1079.928	-0.5
1080.348	-4
1080.769	-11.2
1081.189	2.5
1081.61	-7.1
1082.03	-2.6
1082.451	-4.2
1082.871	-0.8
1083.291	-7.4
1083.711	-7.1
1084.132	-3.5
1084.552	-2.2
1084.972	1.8
1085.392	-11.7
1085.813	-2.7
1086.233	-5.4
1086.653	-6.1
1087.073	-5
1087.493	-4.5
1087.913	-8.1
1088.333	-12.2
1088.753	-6.7
1089.173	-0.7
1089.593	-4.5
1090.013	0.3
1090.433	0.5
1090.852	-5.1
1091.272	1.9
1091.692	-5.7
1092.112	-0.4
1092.531	-7.7
1092.951	-18.9
1093.371	-6.6
1093.79	-1.1
1094.21	-3.8
1094.63	-3.7
1095.049	-7.2
1095.469	-0.3
1095.888	-2.4
1096.308	-1.2
1096.727	5.6
1097.146	-6.7
1097.566	2.4
1097.985	-6.2
1098.405	-2.1
1098.824	-8.7
1099.243	-6.4
1099.662	-8.6
1100.082	2.5
1100.501	-5.7
1100.92	-6.2
1101.339	-5.3
1101.758	-2
