Data from 20171114-ORNL-Ar_H_NY_Subt18_08-04-50-379.txt Node
Date: Tue Nov 14 08:04:50 EST 2017
User: Ender
Spectrometer: HR+D1039
Trigger mode: 0
Integration Time (sec): 2.730000E-2
Scans to average: 10
Electric dark correction enabled: true
Nonlinearity correction enabled: false
Boxcar width: 0
XAxis mode: Wavelengths
Number of Pixels in Spectrum: 2048
>>>>>Begin Spectral Data<<<<<
187.836	0.74
188.309	0.74
188.782	0.74
189.255	0.14
189.728	0.44
190.201	4.44
190.674	1.74
191.147	3.14
191.619	-6.96
192.092	-1.86
192.565	2.14
193.038	1.54
193.511	-2.26
193.984	2.24
194.456	-0.66
194.929	2.54
195.402	-3.96
195.874	-3.36
196.347	-0.16
196.82	-4.96
197.292	6.74
197.765	-2.46
198.237	-7.66
198.71	4.64
199.182	-4.06
199.655	0.24
200.127	3.14
200.6	-2.06
201.072	-5.46
201.544	-6.06
202.017	-5.66
202.489	0.24
202.961	-1.46
203.433	-2.26
203.906	-7.36
204.378	-5.76
204.85	-3.06
205.322	-6.56
205.794	-5.16
206.266	-6.36
206.739	-8.66
207.211	1.24
207.683	0.24
208.155	-10.46
208.627	-9.86
209.099	-2.66
209.57	-9.26
210.042	-4.86
210.514	-4.76
210.986	1.54
211.458	-11.36
211.93	-3.26
212.402	2.04
212.873	-4.16
213.345	-9.76
213.817	-9.66
214.288	-5.46
214.76	-15.26
215.232	-6.56
215.703	-2.16
216.175	-0.86
216.646	-4.16
217.118	-6.46
217.589	-5.56
218.061	-2.06
218.532	-4.56
219.004	1.24
219.475	-3.66
219.946	-3.76
220.418	-4.96
220.889	-1.26
221.36	-2.76
221.832	-3.46
222.303	-10.26
222.774	2.74
223.245	-9.86
223.717	-5.06
224.188	-6.86
224.659	-2.76
225.13	-8.16
225.601	1.44
226.072	1.14
226.543	2.54
227.014	7.74
227.485	-8.66
227.956	-6.26
228.427	-4.26
228.898	1.14
229.369	1.34
229.839	-9.06
230.31	-6.76
230.781	5.84
231.252	-3.86
231.722	-5.46
232.193	-1.26
232.664	-1.56
233.135	-0.96
233.605	1.14
234.076	-2.66
234.546	0.94
235.017	6.94
235.487	3.24
235.958	1.34
236.428	-4.46
236.899	1.14
237.369	2.54
237.84	-1.66
238.31	9.94
238.78	12.64
239.251	-0.86
239.721	1.64
240.191	2.24
240.662	-2.06
241.132	1.74
241.602	2.54
242.072	3.54
242.542	10.74
243.013	4.94
243.483	6.34
243.953	6.24
244.423	5.74
244.893	-5.36
245.363	3.04
245.833	3.04
246.303	-3.06
246.773	7.34
247.243	5.54
247.712	4.64
248.182	5.04
248.652	5.34
249.122	3.04
249.592	11.54
250.061	25.24
250.531	39.74
251.001	16.64
251.471	20.04
251.94	22.14
252.41	5.14
252.879	4.14
253.349	21.04
253.818	11.14
254.288	7.04
254.757	5.64
255.227	4.44
255.696	6.04
256.166	8.54
256.635	11.24
257.105	12.64
257.574	10.74
258.043	15.54
258.513	14.44
258.982	16.34
259.451	5.64
259.92	20.04
260.389	17.04
260.859	17.94
261.328	17.14
261.797	17.94
262.266	9.64
262.735	20.44
263.204	8.84
263.673	5.24
264.142	2.34
264.611	2.44
265.08	7.94
265.549	5.54
266.018	2.74
266.487	-2.06
266.955	1.64
267.424	5.04
267.893	4.74
268.362	1.74
268.83	3.44
269.299	5.34
269.768	8.14
270.236	6.74
270.705	10.34
271.174	10.24
271.642	11.04
272.111	13.64
272.579	19.34
273.048	24.44
273.516	26.04
273.985	30.14
274.453	21.74
274.922	20.84
275.39	11.74
275.858	0.64
276.327	12.84
276.795	22.44
277.263	17.34
277.731	31.54
278.2	52.24
278.668	66.04
279.136	51.64
279.604	16.04
280.072	19.14
280.54	17.44
281.008	9.94
281.477	16.44
281.945	18.14
282.413	15.14
282.881	14.34
283.348	13.14
283.816	20.14
284.284	19.04
284.752	30.14
285.22	16.64
285.688	18.04
286.156	22.04
286.623	51.74
287.091	60.14
287.559	27.54
288.026	22.14
288.494	17.24
288.962	6.64
289.429	15.84
289.897	25.84
290.364	20.84
290.832	18.34
291.3	14.54
291.767	19.54
292.234	22.84
292.702	14.64
293.169	22.54
293.637	30.04
294.104	18.64
294.571	9.04
295.039	10.34
295.506	12.74
295.973	20.04
296.44	14.84
296.908	22.04
297.375	17.44
297.842	24.64
298.309	17.64
298.776	17.54
299.243	25.64
299.71	12.24
300.177	20.84
300.644	25.94
301.111	26.44
301.578	25.44
302.045	21.04
302.512	28.24
302.979	26.84
303.446	27.84
303.913	21.24
304.379	19.04
304.846	32.34
305.313	23.34
305.78	25.74
306.246	27.04
306.713	24.34
307.18	28.04
307.646	28.04
308.113	33.94
308.579	30.44
309.046	29.64
309.512	26.14
309.979	18.64
310.445	29.74
310.912	29.44
311.378	38.44
311.845	30.54
312.311	35.14
312.777	38.54
313.244	33.14
313.71	39.04
314.176	30.74
314.642	33.24
315.109	34.84
315.575	41.54
316.041	47.04
316.507	35.24
316.973	39.64
317.439	33.84
317.905	35.94
318.371	39.24
318.837	40.64
319.303	35.64
319.769	34.94
320.235	34.54
320.701	35.24
321.167	40.34
321.633	35.24
322.099	40.94
322.564	51.44
323.03	45.24
323.496	42.74
323.962	46.84
324.427	36.84
324.893	43.44
325.359	40.74
325.824	41.94
326.29	43.34
326.755	36.14
327.221	39.44
327.686	42.54
328.152	48.74
328.617	49.14
329.083	50.24
329.548	55.44
330.014	46.64
330.479	42.94
330.944	48.44
331.41	46.04
331.875	51.94
332.34	46.44
332.805	46.94
333.271	48.14
333.736	50.54
334.201	57.04
334.666	52.94
335.131	55.64
335.596	51.94
336.061	54.24
336.526	45.64
336.991	57.94
337.456	54.24
337.921	50.84
338.386	42.64
338.851	53.24
339.316	44.94
339.781	47.44
340.246	47.84
340.711	44.54
341.175	44.74
341.64	50.04
342.105	53.64
342.569	59.14
343.034	60.94
343.499	63.14
343.963	57.34
344.428	63.94
344.893	63.24
345.357	67.24
345.822	56.14
346.286	70.04
346.751	80.94
347.215	69.34
347.679	79.54
348.144	99.64
348.608	83.74
349.073	71.24
349.537	79.74
350.001	83.54
350.465	89.64
350.93	80.94
351.394	80.74
351.858	77.04
352.322	93.44
352.786	88.24
353.25	102.24
353.715	112.84
354.179	99.74
354.643	124.94
355.107	126.54
355.571	112.74
356.035	99.14
356.498	122.24
356.962	126.84
357.426	133.74
357.89	115.54
358.354	92.64
358.818	87.04
359.281	77.64
359.745	77.84
360.209	79.24
360.673	77.04
361.136	82.34
361.6	84.74
362.064	87.54
362.527	83.94
362.991	94.24
363.454	80.84
363.918	74.34
364.381	82.14
364.845	85.24
365.308	84.04
365.772	84.74
366.235	90.74
366.698	81.34
367.162	91.34
367.625	88.64
368.088	89.94
368.552	84.14
369.015	91.34
369.478	95.14
369.941	102.94
370.404	95.04
370.867	105.34
371.331	106.04
371.794	112.34
372.257	114.74
372.72	121.84
373.183	114.84
373.646	105.54
374.109	105.04
374.572	104.94
375.035	108.94
375.497	112.04
375.96	105.84
376.423	102.64
376.886	109.64
377.349	110.44
377.811	99.74
378.274	104.54
378.737	98.04
379.199	109.84
379.662	111.14
380.125	111.64
380.587	115.84
381.05	120.74
381.512	127.64
381.975	134.34
382.437	135.04
382.9	125.94
383.362	130.94
383.825	138.14
384.287	139.94
384.75	138.54
385.212	138.34
385.674	139.24
386.136	137.74
386.599	127.24
387.061	126.84
387.523	131.14
387.985	132.04
388.447	141.24
388.91	145.34
389.372	156.44
389.834	150.74
390.296	145.74
390.758	156.34
391.22	167.14
391.682	206.14
392.144	293.14
392.606	227.44
393.068	167.24
393.529	167.64
393.991	156.04
394.453	149.44
394.915	152.84
395.377	191.54
395.838	216.24
396.3	156.64
396.762	138.84
397.224	134.74
397.685	124.04
398.147	129.34
398.608	128.24
399.07	128.74
399.531	135.34
399.993	138.44
400.454	150.84
400.916	133.14
401.377	140.34
401.839	148.04
402.3	149.64
402.762	167.44
403.223	176.04
403.684	167.84
404.145	157.54
404.607	156.34
405.068	161.94
405.529	165.14
405.99	190.34
406.451	170.44
406.913	167.74
407.374	161.24
407.835	152.54
408.296	165.44
408.757	168.64
409.218	178.54
409.679	177.14
410.14	173.94
410.601	182.84
411.062	182.24
411.522	189.94
411.983	185.24
412.444	171.04
412.905	173.34
413.366	180.34
413.826	193.04
414.287	216.24
414.748	262.94
415.208	237.14
415.669	202.24
416.13	194.54
416.59	195.74
417.051	208.04
417.511	212.44
417.972	233.44
418.432	235.94
418.893	283.14
419.353	248.74
419.814	188.64
420.274	176.54
420.734	180.84
421.195	190.54
421.655	191.94
422.115	190.64
422.576	188.24
423.036	189.54
423.496	202.84
423.956	207.14
424.416	224.44
424.876	260.14
425.336	254.24
425.797	256.74
426.257	256.64
426.717	235.54
427.177	222.74
427.637	217.74
428.097	226.14
428.556	238.74
429.016	268.14
429.476	258.34
429.936	265.94
430.396	269.14
430.856	285.84
431.315	309.74
431.775	342.94
432.235	369.14
432.694	341.34
433.154	347.84
433.614	370.84
434.073	323.04
434.533	275.24
434.993	268.44
435.452	268.34
435.912	286.84
436.371	276.24
436.83	270.54
437.29	260.24
437.749	234.34
438.209	244.44
438.668	265.94
439.127	280.24
439.587	258.14
440.046	242.04
440.505	255.54
440.964	275.64
441.424	310.04
441.883	302.44
442.342	254.14
442.801	214.44
443.26	216.04
443.719	212.34
444.178	215.04
444.637	203.94
445.096	210.14
445.555	210.24
446.014	209.84
446.473	214.94
446.932	224.64
447.391	221.34
447.849	214.84
448.308	204.14
448.767	219.54
449.226	230.54
449.685	231.94
450.143	239.64
450.602	234.34
451.061	223.34
451.519	221.44
451.978	230.04
452.436	236.04
452.895	227.54
453.353	240.14
453.812	231.34
454.27	228.54
454.729	234.04
455.187	236.54
455.646	240.14
456.104	243.64
456.562	251.74
457.021	257.14
457.479	246.34
457.937	260.34
458.395	253.34
458.854	234.74
459.312	248.14
459.77	262.14
460.228	250.44
460.686	241.74
461.144	245.04
461.602	233.34
462.06	229.54
462.518	246.74
462.976	249.44
463.434	245.54
463.892	250.54
464.35	268.14
464.808	283.04
465.266	254.94
465.724	252.54
466.181	265.64
466.639	261.14
467.097	288.44
467.555	297.34
468.012	293.44
468.47	299.94
468.928	321.04
469.385	329.74
469.843	340.84
470.3	335.54
470.758	349.54
471.215	366.84
471.673	397.84
472.13	388.14
472.588	406.44
473.045	350.44
473.503	366.04
473.96	382.54
474.417	399.44
474.875	418.14
475.332	460.44
475.789	453.94
476.246	456.14
476.704	459.94
477.161	486.64
477.618	508.74
478.075	544.14
478.532	596.34
478.989	671.64
479.446	772.44
479.903	745.54
480.36	778.74
480.817	843.04
481.274	951.04
481.731	1033.64
482.188	1142.84
482.645	1284.64
483.102	1370.54
483.558	1500.94
484.015	1562.34
484.472	1531.04
484.929	1488.74
485.385	1445.84
485.842	1396.14
486.299	1342.24
486.755	1249.54
487.212	1068.84
487.668	904.04
488.125	826.94
488.582	760.44
489.038	733.24
489.494	691.64
489.951	674.44
490.407	649.14
490.864	625.04
491.32	628.34
491.776	622.54
492.233	624.34
492.689	593.44
493.145	583.04
493.602	582.54
494.058	584.44
494.514	598.64
494.97	611.84
495.426	626.74
495.882	604.04
496.338	600.74
496.794	611.64
497.251	606.04
497.707	612.14
498.163	612.64
498.618	630.04
499.074	628.34
499.53	668.64
499.986	662.84
500.442	631.74
500.898	618.24
501.354	601.74
501.809	609.24
502.265	620.04
502.721	647.94
503.177	651.84
503.632	638.74
504.088	652.74
504.543	686.64
504.999	690.34
505.455	637.24
505.91	606.74
506.366	611.64
506.821	599.14
507.277	596.74
507.732	610.94
508.187	597.44
508.643	606.04
509.098	609.84
509.553	631.54
510.009	644.14
510.464	646.94
510.919	667.64
511.375	669.64
511.83	685.94
512.285	698.14
512.74	727.84
513.195	758.14
513.65	748.94
514.105	749.14
514.56	751.34
515.015	770.84
515.47	791.24
515.925	766.84
516.38	766.04
516.835	778.64
517.29	756.54
517.745	747.64
518.2	735.34
518.655	715.14
519.109	721.34
519.564	719.24
520.019	702.94
520.474	695.24
520.928	696.64
521.383	696.04
521.838	686.04
522.292	682.44
522.747	683.04
523.201	675.24
523.656	666.64
524.11	661.54
524.565	674.04
525.019	665.74
525.474	677.74
525.928	670.54
526.382	665.84
526.837	666.24
527.291	680.34
527.745	670.74
528.2	674.24
528.654	655.94
529.108	657.24
529.562	663.04
530.016	657.74
530.47	658.44
530.925	665.14
531.379	671.74
531.833	674.44
532.287	673.64
532.741	674.04
533.195	685.14
533.649	681.54
534.103	697.74
534.556	689.34
535.01	678.84
535.464	680.94
535.918	679.24
536.372	685.04
536.826	694.44
537.279	676.14
537.733	689.24
538.187	684.24
538.64	685.04
539.094	691.34
539.548	697.94
540.001	689.84
540.455	685.24
540.908	699.04
541.362	691.04
541.815	709.74
542.269	719.94
542.722	720.94
543.175	736.04
543.629	731.04
544.082	747.64
544.536	756.54
544.989	753.74
545.442	755.94
545.895	746.94
546.349	756.04
546.802	762.54
547.255	749.14
547.708	761.34
548.161	774.24
548.614	787.34
549.067	779.54
549.52	778.34
549.973	773.34
550.426	761.24
550.879	747.94
551.332	754.34
551.785	768.94
552.238	760.84
552.691	774.74
553.144	796.74
553.596	805.04
554.049	815.44
554.502	843.64
554.955	863.94
555.407	869.54
555.86	858.84
556.313	859.54
556.765	832.74
557.218	831.74
557.67	838.54
558.123	835.44
558.576	823.54
559.028	829.34
559.48	831.84
559.933	829.04
560.385	798.74
560.838	764.74
561.29	738.34
561.742	730.04
562.195	723.14
562.647	720.14
563.099	735.04
563.551	728.94
564.004	733.54
564.456	733.14
564.908	720.74
565.36	699.34
565.812	694.74
566.264	678.44
566.716	680.54
567.168	675.74
567.62	670.24
568.072	660.84
568.524	656.24
568.976	643.54
569.428	639.44
569.88	631.64
570.332	645.94
570.784	642.44
571.235	639.94
571.687	650.44
572.139	657.84
572.59	673.14
573.042	668.54
573.494	668.94
573.945	660.64
574.397	642.24
574.849	633.94
575.3	647.04
575.752	631.54
576.203	638.44
576.655	644.44
577.106	632.14
577.557	624.04
578.009	624.24
578.46	620.24
578.912	621.54
579.363	622.74
579.814	622.34
580.265	619.44
580.717	616.94
581.168	619.94
581.619	633.34
582.07	634.34
582.521	629.44
582.972	632.04
583.423	634.34
583.875	643.14
584.326	654.44
584.777	699.44
585.227	764.24
585.678	857.34
586.129	940.04
586.58	1002.44
587.031	1085.14
587.482	1246.84
587.933	1425.04
588.384	1221.64
588.834	916.64
589.285	738.84
589.736	722.34
590.186	715.54
590.637	712.14
591.088	692.54
591.538	681.04
591.989	679.24
592.439	674.44
592.89	666.14
593.34	663.94
593.791	654.74
594.241	654.94
594.692	653.14
595.142	652.64
595.593	647.64
596.043	655.74
596.493	659.74
596.943	658.84
597.394	666.34
597.844	660.74
598.294	672.44
598.744	696.64
599.195	712.74
599.645	752.04
600.095	780.34
600.545	848.24
600.995	887.94
601.445	944.14
601.895	999.84
602.345	1037.54
602.795	1014.64
603.245	990.14
603.695	944.24
604.145	886.34
604.594	838.14
605.044	791.74
605.494	730.04
605.944	690.44
606.393	685.94
606.843	671.64
607.293	681.24
607.743	671.24
608.192	685.14
608.642	697.44
609.091	709.94
609.541	701.44
609.99	705.84
610.44	707.84
610.889	656.84
611.339	634.14
611.788	627.94
612.238	645.74
612.687	653.94
613.136	661.04
613.586	678.94
614.035	668.84
614.484	691.44
614.933	696.94
615.383	689.54
615.832	674.84
616.281	662.14
616.73	635.34
617.179	609.34
617.628	598.74
618.077	577.84
618.526	573.84
618.975	560.14
619.424	555.24
619.873	561.24
620.322	563.24
620.771	555.94
621.22	548.54
621.669	543.44
622.118	536.04
622.567	523.94
623.015	519.24
623.464	520.14
623.913	510.84
624.361	503.64
624.81	492.44
625.259	502.94
625.707	507.94
626.156	501.04
626.604	507.44
627.053	506.74
627.501	510.54
627.95	514.84
628.398	518.84
628.847	518.14
629.295	516.04
629.744	518.74
630.192	516.74
630.64	519.94
631.089	519.84
631.537	529.44
631.985	525.04
632.433	547.04
632.881	543.14
633.33	598.84
633.778	573.54
634.226	510.44
634.674	518.94
635.122	523.24
635.57	535.74
636.018	557.84
636.466	522.74
636.914	503.44
637.362	513.64
637.81	524.14
638.258	524.34
638.705	510.04
639.153	547.54
639.601	551.04
640.049	575.44
640.497	596.84
640.944	624.34
641.392	577.94
641.84	552.14
642.287	527.04
642.735	514.64
643.182	514.54
643.63	513.54
644.078	519.94
644.525	530.24
644.973	533.44
645.42	539.64
645.867	554.54
646.315	580.64
646.762	598.94
647.21	617.84
647.657	636.24
648.104	672.64
648.551	692.34
648.999	747.14
649.446	824.14
649.893	900.74
650.34	1029.24
650.787	1227.04
651.234	1523.94
651.682	1992.64
652.129	2734.64
652.576	3913.64
653.023	5810.24
653.47	8017.44
653.917	10104.04
654.363	11792.34
654.81	13200.94
655.257	12565.54
655.704	8167.14
656.151	4808.44
656.598	3087.34
657.044	2189.04
657.491	1692.64
657.938	1352.44
658.385	1132.94
658.831	978.94
659.278	867.24
659.724	770.24
660.171	706.64
660.618	651.44
661.064	615.24
661.511	586.94
661.957	577.04
662.404	577.64
662.85	585.64
663.296	552.54
663.743	495.84
664.189	485.44
664.635	481.94
665.082	468.34
665.528	471.54
665.974	466.34
666.42	454.24
666.867	445.84
667.313	435.44
667.759	433.74
668.205	425.04
668.651	439.24
669.097	428.44
669.543	450.34
669.989	431.24
670.435	402.84
670.881	393.84
671.327	403.64
671.773	414.04
672.219	442.04
672.665	482.24
673.11	514.14
673.556	558.34
674.002	602.44
674.448	580.14
674.893	492.44
675.339	427.94
675.785	386.54
676.23	374.24
676.676	348.84
677.122	341.54
677.567	330.14
678.013	324.04
678.458	321.54
678.904	319.14
679.349	301.94
679.794	312.44
680.24	313.84
680.685	312.84
681.131	307.24
681.576	309.94
682.021	307.94
682.466	300.74
682.912	309.94
683.357	306.94
683.802	335.64
684.247	353.64
684.692	402.04
685.137	434.24
685.583	474.04
686.028	502.94
686.473	461.14
686.918	392.34
687.363	366.14
687.807	342.24
688.252	324.54
688.697	311.64
689.142	294.84
689.587	297.64
690.032	285.24
690.477	300.44
690.921	308.04
691.366	329.94
691.811	345.64
692.255	370.84
692.7	406.84
693.145	441.04
693.589	596.64
694.034	968.04
694.478	1348.14
694.923	1553.24
695.367	2030.14
695.812	1063.44
696.256	443.54
696.701	325.54
697.145	307.94
697.59	292.74
698.034	288.34
698.478	291.74
698.922	290.94
699.367	284.04
699.811	293.44
700.255	313.44
700.699	338.94
701.143	372.34
701.588	421.54
702.032	458.94
702.476	454.24
702.92	426.44
703.364	424.64
703.808	547.84
704.252	883.34
704.696	1262.84
705.14	1488.34
705.584	1917.64
706.027	942.24
706.471	457.54
706.915	344.14
707.359	306.14
707.803	275.54
708.246	275.14
708.69	271.44
709.134	275.14
709.577	271.94
710.021	282.64
710.465	272.94
710.908	266.34
711.352	260.04
711.795	272.74
712.239	305.94
712.682	334.94
713.126	369.64
713.569	405.34
714.012	327.84
714.456	280.44
714.899	264.74
715.342	246.74
715.786	234.64
716.229	222.04
716.672	215.94
717.115	216.84
717.558	216.74
718.002	218.74
718.445	232.84
718.888	254.54
719.331	251.54
719.774	272.84
720.217	263.04
720.66	245.04
721.103	234.04
721.546	226.24
721.989	216.54
722.432	200.44
722.874	204.44
723.317	207.44
723.76	209.14
724.203	228.44
724.645	277.74
725.088	389.34
725.531	497.14
725.974	571.24
726.416	487.84
726.859	269.54
727.301	217.14
727.744	205.34
728.187	206.54
728.629	206.34
729.071	209.14
729.514	217.64
729.956	236.54
730.399	247.84
730.841	256.94
731.283	242.04
731.726	228.64
732.168	230.94
732.61	229.54
733.053	253.34
733.495	270.34
733.937	307.64
734.379	339.04
734.821	375.54
735.263	462.74
735.705	715.64
736.148	1335.54
736.59	2236.54
737.032	2732.24
737.474	2227.44
737.916	712.64
738.357	369.74
738.799	289.14
739.241	260.54
739.683	241.34
740.125	250.84
740.567	258.44
741.008	277.54
741.45	273.34
741.892	273.34
742.334	302.74
742.775	315.04
743.217	300.84
743.658	238.14
744.1	216.54
744.542	227.54
744.983	275.44
745.425	301.84
745.866	308.74
746.307	247.14
746.749	243.84
747.19	288.64
747.632	388.44
748.073	738.54
748.514	1582.04
748.956	2495.34
749.397	3115.74
749.838	2601.84
750.279	2644.94
750.72	1323.34
751.162	474.34
751.603	282.84
752.044	221.74
752.485	190.14
752.926	177.44
753.367	184.54
753.808	163.84
754.249	162.34
754.69	164.74
755.131	152.44
755.572	153.64
756.013	157.44
756.453	161.54
756.894	168.44
757.335	166.74
757.776	173.24
758.216	170.04
758.657	170.74
759.098	180.24
759.538	194.64
759.979	235.74
760.42	318.54
760.86	586.44
761.301	1528.44
761.741	3772.44
762.182	5753.44
762.622	4067.84
763.063	1155.04
763.503	476.14
763.943	300.84
764.384	295.34
764.824	355.74
765.264	395.34
765.705	270.34
766.145	179.74
766.585	163.94
767.025	154.44
767.465	159.94
767.906	206.44
768.346	272.44
768.786	307.54
769.226	231.94
769.666	271.84
770.106	523.34
770.546	1307.64
770.986	2344.94
771.426	2126.34
771.866	699.04
772.306	284.44
772.745	182.94
773.185	152.14
773.625	139.64
774.065	148.94
774.505	170.84
774.944	264.84
775.384	582.04
775.824	1092.44
776.263	1069.14
776.703	455.84
777.142	191.44
777.582	133.54
778.021	114.94
778.461	122.74
778.9	124.34
779.34	114.04
779.779	109.34
780.219	94.74
780.658	89.84
781.097	98.24
781.537	97.34
781.976	96.74
782.415	84.74
782.855	92.54
783.294	88.94
783.733	92.14
784.172	95.94
784.611	94.64
785.05	96.74
785.489	98.34
785.928	101.64
786.367	105.64
786.806	101.94
787.245	113.14
787.684	112.14
788.123	128.94
788.562	117.74
789.001	110.24
789.44	104.34
789.879	100.14
790.317	98.64
790.756	108.64
791.195	109.54
791.634	121.84
792.072	173.84
792.511	303.34
792.95	836.74
793.388	1873.64
793.827	1742.14
794.265	591.04
794.704	248.54
795.142	163.24
795.581	129.24
796.019	121.74
796.458	112.54
796.896	103.64
797.334	105.94
797.773	140.84
798.211	187.44
798.649	366.74
799.087	878.84
799.526	1372.04
799.964	1745.84
800.402	1796.64
800.84	669.44
801.278	269.64
801.716	168.54
802.154	133.44
802.592	128.84
803.03	121.14
803.468	121.04
803.906	122.34
804.344	131.04
804.782	124.04
805.22	112.24
805.658	108.64
806.096	125.14
806.533	129.64
806.971	143.84
807.409	176.94
807.847	263.14
808.284	545.74
808.722	1596.14
809.16	2900.54
809.597	2677.24
810.035	4748.24
810.472	5263.44
810.91	1854.64
811.347	696.64
811.785	346.94
812.222	222.94
812.66	170.14
813.097	151.34
813.535	126.24
813.972	107.14
814.409	100.74
814.846	97.14
815.284	96.54
815.721	86.54
816.158	90.94
816.595	101.24
817.032	156.64
817.47	177.74
817.907	144.44
818.344	138.84
818.781	101.14
819.218	86.74
819.655	107.04
820.092	165.64
820.529	191.04
820.966	157.44
821.403	122.34
821.839	91.04
822.276	92.64
822.713	105.44
823.15	118.04
823.587	99.84
824.023	127.14
824.46	252.34
824.897	771.54
825.333	1221.54
825.77	518.44
826.206	203.74
826.643	115.54
827.08	95.84
827.516	69.74
827.953	63.64
828.389	68.64
828.825	63.74
829.262	67.74
829.698	57.04
830.135	52.44
830.571	57.84
831.007	54.54
831.443	55.04
831.88	55.94
832.316	49.44
832.752	53.14
833.188	56.64
833.624	49.14
834.06	57.94
834.497	63.04
834.933	57.84
835.369	65.54
835.805	62.34
836.241	64.64
836.677	68.44
837.112	77.94
837.548	86.84
837.984	105.74
838.42	162.84
838.856	419.84
839.292	1302.74
839.727	2069.34
840.163	949.44
840.599	789.84
841.034	1757.74
841.47	1932.64
841.906	693.94
842.341	288.04
842.777	201.34
843.212	281.54
843.648	283.74
844.083	134.54
844.519	80.04
844.954	61.24
845.39	51.14
845.825	44.84
846.261	43.34
846.696	44.54
847.131	46.94
847.566	52.24
848.002	48.64
848.437	47.44
848.872	48.54
849.307	53.74
849.742	74.04
850.177	149.04
850.613	475.04
851.048	782.84
851.483	335.14
851.918	129.24
852.353	77.04
852.788	50.24
853.223	45.34
853.657	47.64
854.092	37.94
854.527	34.84
854.962	37.44
855.397	35.04
855.832	39.04
856.266	37.54
856.701	30.24
857.136	34.34
857.57	32.04
858.005	42.84
858.44	48.54
858.874	38.24
859.309	48.54
859.743	33.74
860.178	42.14
860.612	27.64
861.047	43.44
861.481	55.94
861.915	62.64
862.35	42.04
862.784	30.34
863.218	31.44
863.653	25.84
864.087	38.64
864.521	44.44
864.955	56.94
865.39	134.84
865.824	161.54
866.258	99.84
866.692	143.84
867.126	153.84
867.56	97.04
867.994	51.04
868.428	30.84
868.862	38.84
869.296	52.24
869.73	47.14
870.164	47.54
870.598	36.24
871.031	31.04
871.465	29.84
871.899	27.74
872.333	18.04
872.766	20.94
873.2	16.24
873.634	23.24
874.067	11.54
874.501	22.74
874.935	31.24
875.368	25.64
875.802	24.64
876.235	16.94
876.669	22.64
877.102	20.04
877.535	22.14
877.969	18.84
878.402	23.44
878.836	15.14
879.269	16.14
879.702	18.54
880.135	20.24
880.569	21.24
881.002	26.24
881.435	17.94
881.868	19.34
882.301	23.14
882.734	12.44
883.167	23.44
883.601	15.04
884.034	17.94
884.467	8.14
884.899	17.54
885.332	14.44
885.765	13.64
886.198	16.14
886.631	14.64
887.064	14.54
887.497	14.84
887.929	17.04
888.362	14.54
888.795	10.44
889.228	18.34
889.66	23.14
890.093	12.94
890.526	19.14
890.958	11.04
891.391	14.54
891.823	24.74
892.256	13.64
892.688	10.34
893.121	13.64
893.553	15.64
893.985	16.64
894.418	17.04
894.85	8.14
895.282	9.54
895.715	16.24
896.147	17.14
896.579	14.34
897.011	17.94
897.444	11.94
897.876	8.54
898.308	12.84
898.74	15.84
899.172	12.64
899.604	21.04
900.036	16.84
900.468	17.84
900.9	11.14
901.332	16.14
901.764	3.54
902.196	16.04
902.628	15.34
903.06	14.84
903.491	27.04
903.923	23.24
904.355	18.24
904.787	21.14
905.218	24.64
905.65	17.84
906.082	8.84
906.513	10.94
906.945	14.94
907.376	9.04
907.808	16.54
908.239	19.54
908.671	14.24
909.102	19.24
909.534	19.04
909.965	38.64
910.397	79.44
910.828	270.54
911.259	425.44
911.691	194.34
912.122	90.84
912.553	42.94
912.984	27.84
913.415	22.84
913.847	26.84
914.278	12.34
914.709	11.54
915.14	13.24
915.571	13.24
916.002	13.34
916.433	13.84
916.864	10.34
917.295	10.94
917.726	22.14
918.157	14.04
918.587	24.04
919.018	19.24
919.449	20.14
919.88	21.84
920.311	31.94
920.741	36.84
921.172	147.74
921.603	129.04
922.033	65.94
922.464	39.74
922.895	14.64
923.325	15.34
923.756	12.64
924.186	17.84
924.617	27.84
925.047	39.04
925.478	45.24
925.908	40.94
926.338	22.44
926.769	19.24
927.199	17.24
927.629	6.24
928.06	11.74
928.49	10.34
928.92	11.94
929.35	7.64
929.78	6.94
930.21	3.64
930.641	7.64
931.071	6.74
931.501	4.14
931.931	5.94
932.361	5.04
932.791	-0.06
933.221	7.34
933.651	3.54
934.08	12.94
934.51	26.24
934.94	8.54
935.37	7.84
935.8	9.14
936.229	4.84
936.659	6.64
937.089	4.44
937.519	11.94
937.948	22.24
938.378	18.24
938.807	-2.16
939.237	1.04
939.666	8.14
940.096	-8.06
940.525	0.74
940.955	0.44
941.384	3.54
941.814	-10.16
942.243	-3.66
942.672	2.84
943.102	-6.06
943.531	-0.96
943.96	6.14
944.39	5.64
944.819	5.64
945.248	6.14
945.677	3.54
946.106	4.54
946.535	3.24
946.964	0.24
947.393	4.24
947.822	4.44
948.251	-3.06
948.68	2.84
949.109	-0.96
949.538	8.54
949.967	-3.46
950.396	-3.66
950.825	-0.86
951.254	4.44
951.682	-2.46
952.111	10.54
952.54	4.84
952.969	-0.16
953.397	-5.96
953.826	0.44
954.254	-2.36
954.683	3.34
955.112	-1.26
955.54	-1.66
955.969	-2.66
956.397	3.44
956.826	-8.76
957.254	-0.96
957.682	-0.56
958.111	5.94
958.539	3.84
958.967	-0.26
959.396	-4.76
959.824	-0.86
960.252	5.34
960.68	-1.76
961.109	-6.16
961.537	-3.26
961.965	0.94
962.393	1.24
962.821	-6.26
963.249	0.64
963.677	0.74
964.105	5.84
964.533	34.64
964.961	33.04
965.389	13.44
965.817	7.44
966.245	6.14
966.672	-2.16
967.1	-11.16
967.528	3.74
967.956	0.84
968.383	1.64
968.811	-3.26
969.239	-2.86
969.666	-4.26
970.094	-2.66
970.522	-5.16
970.949	-1.86
971.377	-1.26
971.804	-2.36
972.232	-5.96
972.659	1.34
973.087	-0.26
973.514	-4.06
973.941	-3.96
974.369	3.94
974.796	-2.86
975.223	-2.86
975.651	-0.66
976.078	4.74
976.505	1.14
976.932	1.94
977.359	11.84
977.786	19.94
978.214	3.74
978.641	-1.76
979.068	-1.96
979.495	-3.16
979.922	-0.26
980.349	-1.46
980.776	0.34
981.202	2.94
981.629	9.04
982.056	2.04
982.483	-8.56
982.91	6.04
983.337	-6.26
983.763	8.34
984.19	-0.16
984.617	-1.16
985.043	-6.96
985.47	1.04
985.897	-5.06
986.323	-4.76
986.75	1.34
987.176	1.64
987.603	-0.26
988.029	-4.16
988.456	-9.56
988.882	-0.86
989.308	-6.96
989.735	-5.56
990.161	-9.26
990.587	-7.66
991.014	-5.26
991.44	3.94
991.866	-4.66
992.292	-3.36
992.719	-5.26
993.145	5.14
993.571	-5.46
993.997	-6.06
994.423	3.44
994.849	-4.16
995.275	0.04
995.701	1.04
996.127	-4.66
996.553	-2.76
996.979	-1.06
997.405	-5.26
997.83	-3.06
998.256	-11.06
998.682	-5.76
999.108	-7.36
999.534	5.94
999.959	-0.56
1000.385	-5.96
1000.811	0.84
1001.236	-4.86
1001.662	-5.36
1002.087	-6.56
1002.513	2.24
1002.938	-4.26
1003.364	-1.96
1003.789	0.04
1004.215	1.44
1004.64	-1.56
1005.066	4.64
1005.491	-1.06
1005.916	1.24
1006.342	-4.66
1006.767	-8.56
1007.192	-0.76
1007.617	-5.56
1008.042	-0.76
1008.468	-6.56
1008.893	-1.66
1009.318	-8.16
1009.743	-2.86
1010.168	2.14
1010.593	-0.66
1011.018	-9.16
1011.443	-0.16
1011.868	-0.46
1012.293	-8.96
1012.718	-12.16
1013.143	1.44
1013.567	-0.96
1013.992	-1.36
1014.417	-11.96
1014.842	-0.86
1015.267	-5.56
1015.691	-5.36
1016.116	3.94
1016.541	-0.36
1016.965	1.84
1017.39	-1.86
1017.814	-4.26
1018.239	2.24
1018.663	-6.66
1019.088	-6.56
1019.512	-1.26
1019.937	-1.66
1020.361	-0.86
1020.785	-12.66
1021.21	-7.66
1021.634	-0.26
1022.058	-3.86
1022.483	4.54
1022.907	-1.76
1023.331	-3.06
1023.755	3.34
1024.179	-4.56
1024.604	-8.96
1025.028	-4.96
1025.452	-0.46
1025.876	-2.96
1026.3	1.04
1026.724	-6.96
1027.148	0.64
1027.572	-12.36
1027.996	-0.96
1028.42	3.44
1028.843	-1.96
1029.267	-8.26
1029.691	-1.46
1030.115	-4.26
1030.539	-8.66
1030.962	-0.46
1031.386	-10.56
1031.81	-4.16
1032.233	2.44
1032.657	-4.06
1033.08	-1.86
1033.504	-3.46
1033.927	-2.96
1034.351	-2.86
1034.774	-7.46
1035.198	-3.06
1035.621	-6.56
1036.045	-5.86
1036.468	-0.16
1036.891	-4.46
1037.315	-8.76
1037.738	-11.46
1038.161	-5.46
1038.584	-11.06
1039.008	-7.46
1039.431	0.24
1039.854	-2.56
1040.277	-9.96
1040.7	-9.76
1041.123	-3.46
1041.546	-12.26
1041.969	-3.56
1042.392	-2.16
1042.815	-3.76
1043.238	1.04
1043.661	-0.36
1044.084	-9.96
1044.507	-4.26
1044.93	-5.96
1045.352	-9.66
1045.775	-0.56
1046.198	-1.26
1046.621	-5.46
1047.043	-2.66
1047.466	7.74
1047.889	-0.26
1048.311	-13.46
1048.734	-6.16
1049.156	-4.06
1049.579	2.14
1050.001	-7.16
1050.424	-1.96
1050.846	-4.36
1051.269	-2.46
1051.691	-9.56
1052.113	-4.96
1052.536	0.54
1052.958	2.54
1053.38	-2.36
1053.802	-12.06
1054.225	-0.26
1054.647	-11.96
1055.069	-3.46
1055.491	0.74
1055.913	-6.26
1056.335	5.74
1056.757	-3.76
1057.179	-9.56
1057.601	-1.96
1058.023	-3.86
1058.445	1.04
1058.867	-0.16
1059.289	-1.36
1059.711	-6.16
1060.133	-1.76
1060.555	-2.36
1060.976	-2.86
1061.398	-5.86
1061.82	-7.56
1062.241	-9.86
1062.663	-6.86
1063.085	-6.86
1063.506	-0.36
1063.928	-3.06
1064.35	-5.26
1064.771	-11.56
1065.193	-6.76
1065.614	-11.36
1066.035	-0.46
1066.457	-2.76
1066.878	2.94
1067.3	-9.26
1067.721	-9.76
1068.142	-2.76
1068.564	-6.46
1068.985	-2.66
1069.406	-2.96
1069.827	-4.26
1070.248	0.54
1070.67	-4.26
1071.091	-6.56
1071.512	-6.06
1071.933	-4.26
1072.354	-8.96
1072.775	-2.96
1073.196	-11.66
1073.617	-2.66
1074.038	-1.26
1074.459	-1.66
1074.88	-7.86
1075.3	-2.06
1075.721	-9.56
1076.142	0.74
1076.563	-2.36
1076.983	-10.56
1077.404	-7.96
1077.825	-14.56
1078.246	-4.26
1078.666	-5.26
1079.087	-6.26
1079.507	-4.26
1079.928	2.54
1080.348	1.24
1080.769	-3.96
1081.189	0.54
1081.61	-3.16
1082.03	-6.96
1082.451	-6.46
1082.871	-5.96
1083.291	-5.36
1083.711	-6.46
1084.132	-7.06
1084.552	-3.06
1084.972	-1.46
1085.392	-11.96
1085.813	-9.66
1086.233	-8.96
1086.653	-7.16
1087.073	-3.86
1087.493	-8.96
1087.913	-7.46
1088.333	-10.96
1088.753	-7.56
1089.173	-0.46
1089.593	-3.56
1090.013	7.94
1090.433	-1.16
1090.852	-1.16
1091.272	-1.76
1091.692	0.34
1092.112	-6.86
1092.531	-9.16
1092.951	-13.26
1093.371	-5.66
1093.79	4.64
1094.21	-3.66
1094.63	-6.36
1095.049	-5.96
1095.469	-2.46
1095.888	-2.66
1096.308	-1.46
1096.727	-0.56
1097.146	-6.26
1097.566	-2.16
1097.985	-0.66
1098.405	-2.46
1098.824	-8.46
1099.243	-6.96
1099.662	-6.66
1100.082	-5.86
1100.501	-1.46
1100.92	-11.06
1101.339	-5.86
1101.758	-6.96
