Data from 20171114-ORNL-Ar_H_NY_Subt18_08-05-23-136.txt Node
Date: Tue Nov 14 08:05:23 EST 2017
User: Ender
Spectrometer: HR+D1039
Trigger mode: 0
Integration Time (sec): 2.730000E-2
Scans to average: 10
Electric dark correction enabled: true
Nonlinearity correction enabled: false
Boxcar width: 0
XAxis mode: Wavelengths
Number of Pixels in Spectrum: 2048
>>>>>Begin Spectral Data<<<<<
187.836	-3.1
188.309	-3.1
188.782	-3.1
189.255	4
189.728	0.3
190.201	7.1
190.674	-3.3
191.147	1.1
191.619	-9.7
192.092	-0.5
192.565	5
193.038	-0.1
193.511	2.5
193.984	-0
194.456	-0.9
194.929	-2.2
195.402	-0.8
195.874	0.6
196.347	4.8
196.82	-3.7
197.292	6.7
197.765	3.7
198.237	-1.8
198.71	6
199.182	0.1
199.655	1.6
200.127	6.6
200.6	2.9
201.072	-4.4
201.544	-3.9
202.017	1.3
202.489	2.2
202.961	-5.8
203.433	-0.2
203.906	-7.4
204.378	-0.2
204.85	-1.7
205.322	-12.2
205.794	-0.2
206.266	-1.5
206.739	-7
207.211	1.4
207.683	-7.2
208.155	-2.3
208.627	-7.4
209.099	-2
209.57	-6
210.042	-3
210.514	1.3
210.986	4.5
211.458	-8.7
211.93	-0.9
212.402	5.2
212.873	-8.3
213.345	-5.8
213.817	-2.9
214.288	-9.3
214.76	-10.8
215.232	-3.7
215.703	-3.1
216.175	2.2
216.646	-5.7
217.118	-4
217.589	-2.5
218.061	-0.1
218.532	-2.4
219.004	-0.9
219.475	1.6
219.946	-0.3
220.418	-8.6
220.889	3.5
221.36	1.1
221.832	2.6
222.303	-3
222.774	-1.5
223.245	-8.2
223.717	-6.6
224.188	0.9
224.659	-9.9
225.13	-6.6
225.601	-2.2
226.072	-0.2
226.543	4.5
227.014	-0.2
227.485	-0.8
227.956	0.1
228.427	-4.1
228.898	2.7
229.369	6.9
229.839	0.5
230.31	-3.7
230.781	0.8
231.252	0.9
231.722	-0.2
232.193	3.2
232.664	-5.5
233.135	3
233.605	-2.8
234.076	-2.7
234.546	3.7
235.017	4.2
235.487	1.6
235.958	4.9
236.428	-0.6
236.899	10.2
237.369	3.6
237.84	1.5
238.31	8.1
238.78	1.3
239.251	-1.5
239.721	6.6
240.191	3.9
240.662	5
241.132	2.1
241.602	-0.4
242.072	4
242.542	11.7
243.013	3.6
243.483	4.3
243.953	3.5
244.423	-4.4
244.893	-5.9
245.363	2.9
245.833	9.1
246.303	-0.6
246.773	10.7
247.243	6.4
247.712	-1
248.182	11.4
248.652	5.2
249.122	3.3
249.592	12.7
250.061	20.8
250.531	32.3
251.001	21.1
251.471	23.5
251.94	20.2
252.41	9.2
252.879	4.1
253.349	14.4
253.818	12.6
254.288	6.5
254.757	7.8
255.227	4.5
255.696	-0.1
256.166	4.9
256.635	10.9
257.105	18
257.574	10.2
258.043	8.3
258.513	12.2
258.982	21.1
259.451	7
259.92	16.7
260.389	19.2
260.859	24.3
261.328	13.6
261.797	18.4
262.266	8.2
262.735	10.7
263.204	6.5
263.673	-1.4
264.142	5.8
264.611	-5.2
265.08	2.7
265.549	8.4
266.018	9.4
266.487	5.3
266.955	6.9
267.424	2.2
267.893	8.8
268.362	4.2
268.83	3.7
269.299	14.2
269.768	5
270.236	10.8
270.705	11.1
271.174	12.3
271.642	8
272.111	16.3
272.579	20.9
273.048	23.2
273.516	31
273.985	29.9
274.453	29.5
274.922	20.7
275.39	13.1
275.858	5.3
276.327	11.2
276.795	22.1
277.263	8.8
277.731	27
278.2	58.7
278.668	69.8
279.136	49.6
279.604	23.5
280.072	21.8
280.54	17
281.008	12.1
281.477	10.8
281.945	11.3
282.413	20
282.881	16.6
283.348	8.4
283.816	20
284.284	19.5
284.752	21.1
285.22	15.2
285.688	17.6
286.156	21.6
286.623	42.3
287.091	54.4
287.559	30.5
288.026	25.4
288.494	15.3
288.962	9.9
289.429	13.6
289.897	22
290.364	18
290.832	22.7
291.3	20.7
291.767	19
292.234	21.8
292.702	15.2
293.169	18.3
293.637	25.2
294.104	24.3
294.571	13.6
295.039	15.1
295.506	16.8
295.973	17.7
296.44	21.4
296.908	19.4
297.375	22.6
297.842	23.2
298.309	18.7
298.776	12.7
299.243	23.9
299.71	18.4
300.177	22.9
300.644	25.4
301.111	25.7
301.578	25.6
302.045	23
302.512	26.3
302.979	27.4
303.446	26.9
303.913	23
304.379	15.6
304.846	30.2
305.313	18.9
305.78	28.1
306.246	25.1
306.713	36
307.18	28.2
307.646	34.2
308.113	32
308.579	27.4
309.046	32.3
309.512	36.3
309.979	23.1
310.445	29.2
310.912	29.4
311.378	36.5
311.845	37.1
312.311	34.6
312.777	35.7
313.244	33.9
313.71	45
314.176	32
314.642	31.4
315.109	33.9
315.575	36.4
316.041	43
316.507	38.9
316.973	44.5
317.439	35.8
317.905	34.8
318.371	36.9
318.837	40.9
319.303	37.1
319.769	40.5
320.235	34.9
320.701	46.5
321.167	41.2
321.633	38.1
322.099	44.3
322.564	46.6
323.03	45.7
323.496	36.7
323.962	43.7
324.427	41
324.893	44.2
325.359	43.7
325.824	42.1
326.29	47.8
326.755	44.2
327.221	45.7
327.686	40.3
328.152	46.9
328.617	38.9
329.083	48.4
329.548	50.5
330.014	50.5
330.479	40.3
330.944	45.5
331.41	43
331.875	50.7
332.34	45.6
332.805	49.3
333.271	55.7
333.736	50.3
334.201	61.1
334.666	56.4
335.131	55.3
335.596	57.2
336.061	51.5
336.526	43.5
336.991	54.3
337.456	57.9
337.921	50.8
338.386	41.4
338.851	50.6
339.316	55.7
339.781	50.1
340.246	59.4
340.711	52.2
341.175	52.4
341.64	53.4
342.105	57.5
342.569	60.1
343.034	58.9
343.499	60.1
343.963	55.9
344.428	70
344.893	59.4
345.357	57.9
345.822	63.5
346.286	74
346.751	80.9
347.215	70.6
347.679	78.4
348.144	102.7
348.608	86.2
349.073	74.5
349.537	81.7
350.001	81.5
350.465	90.6
350.93	88.7
351.394	88
351.858	78
352.322	81.3
352.786	88.7
353.25	108.1
353.715	115.4
354.179	100
354.643	132.3
355.107	126.2
355.571	113.2
356.035	105.1
356.498	121.6
356.962	131.9
357.426	132.5
357.89	118.1
358.354	104.3
358.818	91.1
359.281	81.2
359.745	76
360.209	82.3
360.673	82.5
361.136	81.6
361.6	81.8
362.064	85.4
362.527	88
362.991	98
363.454	84.7
363.918	78.8
364.381	80.4
364.845	79.7
365.308	83.1
365.772	88.1
366.235	88.9
366.698	81.3
367.162	85.3
367.625	93.5
368.088	93.2
368.552	97.2
369.015	93.1
369.478	105.2
369.941	104.9
370.404	98.9
370.867	106.9
371.331	110.1
371.794	120.9
372.257	118.3
372.72	121.6
373.183	112.2
373.646	108.4
374.109	105.8
374.572	109.4
375.035	115.2
375.497	114.6
375.96	106.1
376.423	109.3
376.886	116.3
377.349	112.8
377.811	108.8
378.274	105.5
378.737	115.9
379.199	117.3
379.662	116.9
380.125	123.8
380.587	125.7
381.05	123.2
381.512	134.4
381.975	137
382.437	127.2
382.9	125.7
383.362	127.8
383.825	146.2
384.287	145
384.75	140.2
385.212	150
385.674	142.1
386.136	139.5
386.599	125.6
387.061	131.8
387.523	134.9
387.985	137.2
388.447	141.9
388.91	147.2
389.372	161.7
389.834	155.7
390.296	145.4
390.758	158
391.22	161.4
391.682	215.3
392.144	298.7
392.606	233.3
393.068	168.6
393.529	174.2
393.991	154.3
394.453	148.5
394.915	155.7
395.377	189.2
395.838	210.1
396.3	153
396.762	149.2
397.224	136.6
397.685	132.6
398.147	135.4
398.608	131.9
399.07	130.7
399.531	139
399.993	146.5
400.454	153.4
400.916	146.3
401.377	145.4
401.839	151.9
402.3	150.4
402.762	166.1
403.223	185.1
403.684	176.6
404.145	159.3
404.607	163.2
405.068	166.5
405.529	169.8
405.99	190.4
406.451	183.4
406.913	176.6
407.374	173.8
407.835	164.8
408.296	165.5
408.757	173.2
409.218	188.4
409.679	179.6
410.14	180.4
410.601	178.2
411.062	191.6
411.522	192.8
411.983	186
412.444	176.2
412.905	185.2
413.366	182
413.826	202.5
414.287	219.2
414.748	266.4
415.208	250.4
415.669	216.3
416.13	203.3
416.59	198.9
417.051	215.7
417.511	227.7
417.972	234.8
418.432	244.5
418.893	292.8
419.353	257
419.814	201
420.274	185.1
420.734	182
421.195	197.1
421.655	198.8
422.115	191.1
422.576	193.3
423.036	198.8
423.496	202.3
423.956	214.4
424.416	226.3
424.876	271.6
425.336	265.8
425.797	262.5
426.257	257.8
426.717	251.1
427.177	232.5
427.637	223.7
428.097	239.4
428.556	247.5
429.016	278.9
429.476	268.6
429.936	277.9
430.396	281.4
430.856	293.8
431.315	321
431.775	349.1
432.235	375.1
432.694	349.9
433.154	363.5
433.614	396.5
434.073	343.2
434.533	290.8
434.993	279.1
435.452	290.2
435.912	294.8
436.371	294.9
436.83	286.9
437.29	279.3
437.749	243.9
438.209	241.5
438.668	270
439.127	288
439.587	261.2
440.046	255.4
440.505	263.8
440.964	279.8
441.424	327.2
441.883	316.5
442.342	255.2
442.801	233.4
443.26	222.4
443.719	222
444.178	221.9
444.637	210.2
445.096	222
445.555	217.6
446.014	229.6
446.473	226.7
446.932	233.2
447.391	226.2
447.849	229.5
448.308	218.5
448.767	225.6
449.226	239.1
449.685	238
450.143	258.2
450.602	238.1
451.061	223.5
451.519	232.9
451.978	240.8
452.436	232.3
452.895	250.2
453.353	255.7
453.812	241.1
454.27	238.4
454.729	246.1
455.187	238.6
455.646	249
456.104	244.8
456.562	256.6
457.021	269.9
457.479	259.5
457.937	273.1
458.395	266.3
458.854	248.5
459.312	255
459.77	275.3
460.228	258.2
460.686	236.6
461.144	254.6
461.602	245.6
462.06	246.8
462.518	252.1
462.976	258.5
463.434	266.5
463.892	264.3
464.35	274.5
464.808	288
465.266	266.6
465.724	267.6
466.181	277.8
466.639	269.3
467.097	283.3
467.555	307.7
468.012	305.5
468.47	315
468.928	325.3
469.385	349.7
469.843	347.7
470.3	360
470.758	367.6
471.215	396.5
471.673	410.4
472.13	411.5
472.588	417.4
473.045	376.4
473.503	381.2
473.96	398.3
474.417	410.6
474.875	436.6
475.332	480.8
475.789	461.5
476.246	475.2
476.704	493
477.161	518
477.618	532.2
478.075	566
478.532	624.7
478.989	702.9
479.446	811.4
479.903	777.7
480.36	816.8
480.817	873.2
481.274	975.9
481.731	1080.9
482.188	1167
482.645	1304.2
483.102	1407.6
483.558	1552.9
484.015	1611.9
484.472	1586.7
484.929	1539.1
485.385	1475.1
485.842	1453
486.299	1380.1
486.755	1310.5
487.212	1111.5
487.668	920.9
488.125	860
488.582	779.4
489.038	744.3
489.494	712.6
489.951	692.8
490.407	677.7
490.864	649.2
491.32	646.7
491.776	638.2
492.233	636.9
492.689	617.4
493.145	606.8
493.602	601.7
494.058	620.3
494.514	625.5
494.97	638.8
495.426	656.7
495.882	630.8
496.338	620.6
496.794	631.7
497.251	622.8
497.707	635.8
498.163	633.3
498.618	657.6
499.074	655.9
499.53	683.7
499.986	687.5
500.442	664.8
500.898	637.5
501.354	630.4
501.809	636.6
502.265	649.4
502.721	666.8
503.177	674
503.632	670.1
504.088	676.1
504.543	704.2
504.999	709.3
505.455	664.5
505.91	644.3
506.366	637.8
506.821	634.2
507.277	630
507.732	633.6
508.187	634.6
508.643	634.8
509.098	641.7
509.553	656.8
510.009	667.2
510.464	672
510.919	683
511.375	690.5
511.83	707
512.285	726.1
512.74	764.1
513.195	783.2
513.65	784.1
514.105	787.5
514.56	784.5
515.015	794.2
515.47	818
515.925	793.8
516.38	793.7
516.835	790.4
517.29	794.9
517.745	778.5
518.2	759.8
518.655	750.6
519.109	748.9
519.564	748.7
520.019	729.9
520.474	729.4
520.928	736.6
521.383	726.8
521.838	708.8
522.292	708.3
522.747	706.6
523.201	696
523.656	700
524.11	690.7
524.565	694.1
525.019	683.1
525.474	704.3
525.928	704.1
526.382	704.2
526.837	698.5
527.291	707
527.745	701.8
528.2	700.1
528.654	701.6
529.108	681.9
529.562	697.7
530.016	688.3
530.47	686.5
530.925	697.5
531.379	699.3
531.833	704.3
532.287	714.1
532.741	698.9
533.195	711.6
533.649	719
534.103	724.5
534.556	711.5
535.01	716.2
535.464	711.8
535.918	736.6
536.372	721.1
536.826	721.5
537.279	701.6
537.733	714.3
538.187	714.8
538.64	711.5
539.094	723.2
539.548	733.1
540.001	725.9
540.455	722.4
540.908	728.7
541.362	724.9
541.815	736.4
542.269	761.1
542.722	759.5
543.175	768
543.629	773.9
544.082	788.3
544.536	787
544.989	776.5
545.442	801.7
545.895	789.6
546.349	793.9
546.802	796.1
547.255	800.4
547.708	791
548.161	806.1
548.614	820
549.067	821.2
549.52	820.8
549.973	799.7
550.426	807.1
550.879	793.2
551.332	800.4
551.785	799.1
552.238	812
552.691	809.6
553.144	824.1
553.596	845.7
554.049	856.9
554.502	888.3
554.955	904.1
555.407	911.9
555.86	901.9
556.313	887.5
556.765	883
557.218	873.1
557.67	879.7
558.123	868.5
558.576	871.9
559.028	874.9
559.48	874.4
559.933	868.3
560.385	835.3
560.838	797.5
561.29	779.7
561.742	769.2
562.195	763.5
562.647	767
563.099	753.4
563.551	762.1
564.004	783.1
564.456	767.3
564.908	759.1
565.36	746.4
565.812	727.2
566.264	717.2
566.716	715.8
567.168	712.8
567.62	718.8
568.072	701.9
568.524	691.1
568.976	689.9
569.428	666.4
569.88	669.7
570.332	673.8
570.784	673
571.235	674.6
571.687	684.2
572.139	692.2
572.59	698.4
573.042	698
573.494	694.6
573.945	697.9
574.397	678.6
574.849	683
575.3	688.3
575.752	677.6
576.203	680.6
576.655	680
577.106	663
577.557	660.3
578.009	652.8
578.46	660.9
578.912	647.3
579.363	653
579.814	658.3
580.265	650.5
580.717	664.5
581.168	658.9
581.619	669.6
582.07	673.9
582.521	668.1
582.972	664.2
583.423	664.9
583.875	673.2
584.326	699
584.777	734.7
585.227	808.4
585.678	897
586.129	981.1
586.58	1045.6
587.031	1137.8
587.482	1286.4
587.933	1469.5
588.384	1263.6
588.834	955.9
589.285	791.8
589.736	761.6
590.186	751.8
590.637	749.1
591.088	735.4
591.538	726
591.989	718.1
592.439	721.7
592.89	703.5
593.34	696.4
593.791	697.3
594.241	689.5
594.692	686.8
595.142	686.8
595.593	678.7
596.043	701
596.493	699.4
596.943	699.7
597.394	712.3
597.844	689.3
598.294	719
598.744	725.1
599.195	753
599.645	797.2
600.095	830
600.545	896.2
600.995	947
601.445	997.7
601.895	1051
602.345	1097.6
602.795	1082
603.245	1045.5
603.695	995.6
604.145	935.9
604.594	885.9
605.044	835.6
605.494	793.2
605.944	747.3
606.393	733.1
606.843	715.7
607.293	709.4
607.743	708.5
608.192	724.4
608.642	738.3
609.091	743
609.541	749.7
609.99	749.8
610.44	734.8
610.889	695.5
611.339	683.2
611.788	661.7
612.238	679.5
612.687	695.5
613.136	702.1
613.586	716.9
614.035	711
614.484	732
614.933	734.1
615.383	727
615.832	715.5
616.281	709.8
616.73	664.4
617.179	647.4
617.628	631.3
618.077	614
618.526	605.7
618.975	594.7
619.424	589.1
619.873	590.3
620.322	600.6
620.771	593
621.22	579.5
621.669	576
622.118	572.3
622.567	566.2
623.015	558.4
623.464	556
623.913	546.4
624.361	530.8
624.81	539.3
625.259	537.6
625.707	533
626.156	542
626.604	555
627.053	550.9
627.501	545.1
627.95	546.3
628.398	560.8
628.847	549.7
629.295	545.9
629.744	564.3
630.192	540.9
630.64	555.5
631.089	538.1
631.537	567.7
631.985	564.4
632.433	571
632.881	592.3
633.33	640.5
633.778	622.8
634.226	538
634.674	544.6
635.122	556.6
635.57	572.1
636.018	594.4
636.466	556.4
636.914	544.7
637.362	543.2
637.81	554.9
638.258	553.4
638.705	557.5
639.153	578.7
639.601	581.5
640.049	608.4
640.497	642
640.944	673.8
641.392	616.5
641.84	583.6
642.287	556.8
642.735	551.9
643.182	550.4
643.63	554
644.078	548.9
644.525	561.5
644.973	566
645.42	576.5
645.867	597.3
646.315	607.5
646.762	635.3
647.21	666.8
647.657	679.9
648.104	716.8
648.551	741.5
648.999	806.7
649.446	878.4
649.893	952
650.34	1111.1
650.787	1327.6
651.234	1650.6
651.682	2136.7
652.129	2930.9
652.576	4205.6
653.023	6202.6
653.47	8528.7
653.917	10702.8
654.363	12496.7
654.81	13861.2
655.257	13192.6
655.704	8629.3
656.151	5112.5
656.598	3295.5
657.044	2329.6
657.491	1793
657.938	1437.5
658.385	1201.1
658.831	1035.6
659.278	922.9
659.724	822.6
660.171	752.6
660.618	697.3
661.064	668.2
661.511	635
661.957	627.6
662.404	616.6
662.85	624.8
663.296	605.7
663.743	541.5
664.189	507.4
664.635	506
665.082	511.3
665.528	504.1
665.974	497.9
666.42	482.9
666.867	483
667.313	463.5
667.759	464.5
668.205	458.1
668.651	456.3
669.097	453.5
669.543	482.6
669.989	448.5
670.435	420.3
670.881	422.8
671.327	433.2
671.773	450.6
672.219	474.1
672.665	517.4
673.11	543.6
673.556	598
674.002	635.8
674.448	619.7
674.893	516.4
675.339	456.4
675.785	419.3
676.23	389.4
676.676	380
677.122	366.4
677.567	349
678.013	356.4
678.458	347.3
678.904	345.6
679.349	326.1
679.794	331.7
680.24	341.8
680.685	335.7
681.131	331.5
681.576	334.7
682.021	331.3
682.466	329.5
682.912	332.7
683.357	329.5
683.802	355.2
684.247	382.3
684.692	426.8
685.137	474.8
685.583	498.8
686.028	538.1
686.473	493.1
686.918	415.6
687.363	393.9
687.807	374.4
688.252	346.1
688.697	336.2
689.142	322.2
689.587	318.8
690.032	311.2
690.477	324.7
690.921	325.5
691.366	353.3
691.811	374.7
692.255	399.6
692.7	432.4
693.145	476.7
693.589	638.3
694.034	1041.4
694.478	1441.5
694.923	1659
695.367	2163.8
695.812	1136.9
696.256	462.7
696.701	347.5
697.145	321.7
697.59	314.2
698.034	300.7
698.478	314.6
698.922	310.6
699.367	306.2
699.811	320.2
700.255	333.1
700.699	359.9
701.143	411.1
701.588	456.5
702.032	487.9
702.476	483.8
702.92	460.8
703.364	460.5
703.808	595.4
704.252	960.1
704.696	1353.4
705.14	1590.1
705.584	2024.8
706.027	1005.6
706.471	486.9
706.915	378.3
707.359	327.3
707.803	304.6
708.246	290.3
708.69	288
709.134	298.5
709.577	291.7
710.021	296.1
710.465	293.9
710.908	288.5
711.352	277.9
711.795	288.9
712.239	334.1
712.682	361.2
713.126	390.3
713.569	435.7
714.012	351.2
714.456	298.4
714.899	287.8
715.342	263.4
715.786	247.4
716.229	241.2
716.672	252.9
717.115	231.2
717.558	230.1
718.002	234.9
718.445	246.7
718.888	260.4
719.331	271.9
719.774	290.1
720.217	285.4
720.66	267.1
721.103	251.1
721.546	236.1
721.989	233.4
722.432	216.9
722.874	229.7
723.317	215.8
723.76	219.1
724.203	237.4
724.645	304
725.088	409.9
725.531	536.7
725.974	607.8
726.416	522.7
726.859	286.2
727.301	235.7
727.744	222.5
728.187	224.2
728.629	228.7
729.071	236.3
729.514	242
729.956	254
730.399	263.4
730.841	269.8
731.283	263
731.726	249.5
732.168	251.2
732.61	245.5
733.053	265.4
733.495	289.7
733.937	333.1
734.379	375.9
734.821	402.1
735.263	497.3
735.705	764.7
736.148	1441.5
736.59	2395.9
737.032	2894.7
737.474	2366.3
737.916	759.2
738.357	400.7
738.799	304.5
739.241	280.2
739.683	261.1
740.125	276
740.567	278.3
741.008	292
741.45	297.6
741.892	297.7
742.334	324.4
742.775	340.2
743.217	322.3
743.658	251.3
744.1	240.2
744.542	246.3
744.983	292.4
745.425	328.3
745.866	318.9
746.307	263.5
746.749	268.3
747.19	301.1
747.632	415.4
748.073	790.7
748.514	1700.6
748.956	2662.5
749.397	3320.8
749.838	2766
750.279	2806.1
750.72	1411.3
751.162	511.4
751.603	307.2
752.044	239.7
752.485	203.8
752.926	193.5
753.367	190.1
753.808	188
754.249	177.2
754.69	168.8
755.131	173
755.572	165.8
756.013	171.3
756.453	169.4
756.894	171.7
757.335	188.9
757.776	185
758.216	188.4
758.657	186.4
759.098	191.6
759.538	205.9
759.979	251.1
760.42	346.7
760.86	633.7
761.301	1636.4
761.741	4042.2
762.182	6098.2
762.622	4298.3
763.063	1232.1
763.503	500
763.943	323.9
764.384	317.8
764.824	383.5
765.264	415.7
765.705	287.3
766.145	194.4
766.585	177
767.025	171.9
767.465	182
767.906	229.1
768.346	299.7
768.786	321.9
769.226	240.5
769.666	295.4
770.106	563.7
770.546	1414.2
770.986	2484.1
771.426	2248.8
771.866	744.4
772.306	313
772.745	191.4
773.185	169.3
773.625	164.2
774.065	153.2
774.505	182.5
774.944	276.7
775.384	604.2
775.824	1135.4
776.263	1126.2
776.703	470.5
777.142	208.2
777.582	152.6
778.021	125.7
778.461	127.6
778.9	137.4
779.34	123.9
779.779	113.1
780.219	100
780.658	107.2
781.097	102.3
781.537	111.6
781.976	102.1
782.415	95.3
782.855	97.4
783.294	104.9
783.733	99.9
784.172	104.2
784.611	96.3
785.05	104.5
785.489	101.6
785.928	115.4
786.367	108.1
786.806	111.7
787.245	126.1
787.684	125.5
788.123	144.5
788.562	126.2
789.001	117.4
789.44	118.1
789.879	114.1
790.317	109.4
790.756	115.3
791.195	117.6
791.634	139.2
792.072	187.7
792.511	331
792.95	903.4
793.388	1992.7
793.827	1847.2
794.265	631.6
794.704	252
795.142	174.5
795.581	149.2
796.019	130.6
796.458	118.1
796.896	114.1
797.334	120.4
797.773	148.2
798.211	211.5
798.649	402.2
799.087	932.3
799.526	1486.8
799.964	1864.9
800.402	1910.4
800.84	718.5
801.278	281.3
801.716	170
802.154	144.5
802.592	142.2
803.03	131.1
803.468	120.7
803.906	136.4
804.344	139
804.782	130.5
805.22	121.4
805.658	127.5
806.096	137.1
806.533	145.5
806.971	165.1
807.409	199.5
807.847	286.1
808.284	603.8
808.722	1699.9
809.16	3088.1
809.597	2874
810.035	5039.4
810.472	5506.7
810.91	1985.2
811.347	752.2
811.785	376.3
812.222	238.2
812.66	181.3
813.097	153.8
813.535	130.4
813.972	122.4
814.409	107.3
814.846	103
815.284	101.8
815.721	94.4
816.158	99.7
816.595	112.3
817.032	167.8
817.47	185.1
817.907	167
818.344	142.6
818.781	106.3
819.218	93.9
819.655	113.9
820.092	178.4
820.529	205.9
820.966	163.1
821.403	126.4
821.839	103.3
822.276	96.6
822.713	115
823.15	123.2
823.587	108.4
824.023	141.2
824.46	273.5
824.897	830.7
825.333	1272.8
825.77	548.8
826.206	212.4
826.643	132.3
827.08	100
827.516	76.3
827.953	74.9
828.389	77.8
828.825	67.5
829.262	66.4
829.698	64.8
830.135	64
830.571	62.4
831.007	64.7
831.443	61.5
831.88	62.6
832.316	58.5
832.752	60.2
833.188	62.6
833.624	60.3
834.06	64.5
834.497	67.8
834.933	67.7
835.369	68.3
835.805	66.6
836.241	73.8
836.677	77.1
837.112	84.8
837.548	94.5
837.984	121.7
838.42	177.7
838.856	450.8
839.292	1381
839.727	2185.9
840.163	1012.3
840.599	850.5
841.034	1885.4
841.47	2026.7
841.906	730.6
842.341	318.4
842.777	212.1
843.212	292.8
843.648	294.7
844.083	143.5
844.519	93
844.954	76.5
845.39	62.1
845.825	53.7
846.261	49.2
846.696	53.8
847.131	51.4
847.566	58
848.002	46
848.437	46.3
848.872	50.9
849.307	53.3
849.742	75.5
850.177	167.4
850.613	513.6
851.048	830.9
851.483	363
851.918	142.2
852.353	86.5
852.788	65.1
853.223	60.8
853.657	57.4
854.092	43.8
854.527	34.4
854.962	38.2
855.397	48
855.832	48.7
856.266	40.9
856.701	39.2
857.136	32.5
857.57	38.5
858.005	47.1
858.44	50.7
858.874	38.5
859.309	54.9
859.743	33.9
860.178	52.3
860.612	40.7
861.047	51.6
861.481	59.2
861.915	62.4
862.35	47.5
862.784	33.9
863.218	29.9
863.653	31.7
864.087	41
864.521	50.5
864.955	70.1
865.39	142
865.824	163.7
866.258	106.5
866.692	153
867.126	164.2
867.56	104.5
867.994	50.4
868.428	32.5
868.862	45.5
869.296	50.9
869.73	56.7
870.164	46.3
870.598	42.4
871.031	32.1
871.465	32.2
871.899	29.1
872.333	28.2
872.766	25.9
873.2	23
873.634	25.3
874.067	24.9
874.501	24.4
874.935	27.3
875.368	29.9
875.802	27.8
876.235	19.8
876.669	26.7
877.102	17.9
877.535	21.1
877.969	22.9
878.402	21.1
878.836	21.7
879.269	21.8
879.702	22.5
880.135	18.9
880.569	20.1
881.002	21.7
881.435	26.4
881.868	18.1
882.301	16
882.734	15.9
883.167	22.8
883.601	14.7
884.034	17.8
884.467	19.4
884.899	21.9
885.332	12.2
885.765	11.8
886.198	16.2
886.631	13
887.064	16.9
887.497	14.5
887.929	22.5
888.362	8.2
888.795	8.9
889.228	13.4
889.66	20.7
890.093	17.7
890.526	17.1
890.958	16.5
891.391	22.2
891.823	22.1
892.256	15.7
892.688	9.7
893.121	11.7
893.553	13.8
893.985	22.4
894.418	17.9
894.85	13.4
895.282	14.6
895.715	17.9
896.147	15.5
896.579	13.9
897.011	20.3
897.444	19.3
897.876	14.4
898.308	14.1
898.74	22.1
899.172	11.6
899.604	24.3
900.036	19.9
900.468	18.8
900.9	14.8
901.332	15.5
901.764	7.7
902.196	14.3
902.628	20.7
903.06	12.3
903.491	30
903.923	19.8
904.355	16.5
904.787	30.2
905.218	24.5
905.65	21.2
906.082	10.3
906.513	12
906.945	12.6
907.376	10.1
907.808	18.9
908.239	20.9
908.671	19.7
909.102	21.1
909.534	24.6
909.965	46.2
910.397	91.1
910.828	293.8
911.259	452.6
911.691	204.4
912.122	94.1
912.553	49.9
912.984	37.2
913.415	29.5
913.847	26.3
914.278	13.9
914.709	10.2
915.14	18.8
915.571	19.7
916.002	13.8
916.433	18
916.864	17
917.295	9.2
917.726	23.6
918.157	15.1
918.587	32.3
919.018	16.9
919.449	18.4
919.88	26.1
920.311	29.6
920.741	43.2
921.172	161.5
921.603	141.5
922.033	70.1
922.464	51
922.895	21
923.325	19
923.756	13.1
924.186	19.2
924.617	23.1
925.047	37.9
925.478	49.7
925.908	44.2
926.338	25.9
926.769	16
927.199	21.3
927.629	7.7
928.06	16.7
928.49	10.7
928.92	10.7
929.35	13.4
929.78	10.8
930.21	2.4
930.641	13.3
931.071	15.8
931.501	-2.4
931.931	6.2
932.361	1.4
932.791	8.3
933.221	5.8
933.651	2.4
934.08	17.1
934.51	26.9
934.94	8
935.37	14.9
935.8	14.6
936.229	10.2
936.659	5.6
937.089	-1.9
937.519	17.2
937.948	27.6
938.378	10.3
938.807	4.5
939.237	2.6
939.666	3.6
940.096	-3.7
940.525	4.2
940.955	-4.1
941.384	2.6
941.814	-5.2
942.243	3.3
942.672	1
943.102	-3.2
943.531	-0.7
943.96	7.8
944.39	0.9
944.819	-1.4
945.248	2.7
945.677	-0.5
946.106	5.7
946.535	4.5
946.964	6.8
947.393	1.2
947.822	-1.2
948.251	-0.8
948.68	4.9
949.109	1.4
949.538	1.9
949.967	-0.1
950.396	1.6
950.825	-3.5
951.254	0.1
951.682	-7.6
952.111	0.6
952.54	2.4
952.969	-4.7
953.397	-1.4
953.826	3.1
954.254	-0.1
954.683	2.5
955.112	-3.2
955.54	3.9
955.969	1.3
956.397	-1.3
956.826	1.1
957.254	6.5
957.682	6.1
958.111	9.3
958.539	-0.3
958.967	1.6
959.396	1.3
959.824	-0.9
960.252	-2.6
960.68	-5.6
961.109	-3.6
961.537	-2.5
961.965	1.3
962.393	3
962.821	-0.6
963.249	3.6
963.677	4.3
964.105	6.3
964.533	40.2
964.961	37.6
965.389	21.2
965.817	9.4
966.245	2
966.672	3.6
967.1	-9.3
967.528	6.8
967.956	1.5
968.383	0.9
968.811	-0.2
969.239	-2.7
969.666	0.1
970.094	7
970.522	0.5
970.949	-4.2
971.377	-6.7
971.804	-0.4
972.232	-2.4
972.659	3.1
973.087	-6.1
973.514	-4.9
973.941	-8.7
974.369	3.4
974.796	2
975.223	-0.5
975.651	-4.6
976.078	4.6
976.505	2
976.932	1
977.359	16.3
977.786	9
978.214	2
978.641	-4.3
979.068	-4
979.495	-7.4
979.922	4.6
980.349	-3.9
980.776	7.7
981.202	3.3
981.629	3.7
982.056	6.3
982.483	-6.2
982.91	2
983.337	-5.6
983.763	3.7
984.19	-4.1
984.617	-4.7
985.043	-12.5
985.47	-0.9
985.897	-10.1
986.323	-9.6
986.75	6.5
987.176	0.5
987.603	-2.7
988.029	-3.9
988.456	-5.4
988.882	-4.7
989.308	-6.7
989.735	-4.3
990.161	-2.1
990.587	-4.6
991.014	0.9
991.44	10
991.866	1.7
992.292	-3.7
992.719	-5.9
993.145	-0
993.571	-9.6
993.997	2.3
994.423	-0.1
994.849	-4
995.275	1.4
995.701	4.4
996.127	-0.2
996.553	1
996.979	-2.3
997.405	-2.4
997.83	-3.8
998.256	-9
998.682	-10.1
999.108	-5.3
999.534	1.2
999.959	1.4
1000.385	-4.7
1000.811	-2.7
1001.236	-5.5
1001.662	-11.5
1002.087	-3.8
1002.513	2
1002.938	3.8
1003.364	-3.1
1003.789	3.8
1004.215	1.8
1004.64	-6.1
1005.066	7.7
1005.491	0.4
1005.916	-4.6
1006.342	-6.4
1006.767	-8.7
1007.192	2.5
1007.617	-9.4
1008.042	-3.7
1008.468	-5.2
1008.893	-5.6
1009.318	-8.1
1009.743	0.8
1010.168	0.3
1010.593	0.8
1011.018	-6.3
1011.443	-2.7
1011.868	2.1
1012.293	-0.2
1012.718	-2.6
1013.143	-0.3
1013.567	0.6
1013.992	-2.3
1014.417	-10.1
1014.842	-3.1
1015.267	-8.2
1015.691	-5.8
1016.116	7.8
1016.541	2.8
1016.965	6.2
1017.39	4.4
1017.814	-0.8
1018.239	-3.2
1018.663	-11.4
1019.088	-10.9
1019.512	-1
1019.937	-0.7
1020.361	-4.4
1020.785	-7.6
1021.21	-4.3
1021.634	-3.3
1022.058	3
1022.483	4.2
1022.907	2.7
1023.331	-1.5
1023.755	-1.8
1024.179	1.1
1024.604	-6.4
1025.028	-2.2
1025.452	-7.8
1025.876	-0.7
1026.3	2.8
1026.724	-9.2
1027.148	-6.3
1027.572	-6.8
1027.996	-5.4
1028.42	-4
1028.843	-4.3
1029.267	-2
1029.691	-3.1
1030.115	-8
1030.539	-6
1030.962	-4.9
1031.386	-10.8
1031.81	2.2
1032.233	3.2
1032.657	-4.7
1033.08	-4.5
1033.504	-3.4
1033.927	-0.1
1034.351	1.8
1034.774	0.4
1035.198	2.8
1035.621	-6.9
1036.045	-12.9
1036.468	1.3
1036.891	-11.9
1037.315	-7.4
1037.738	-6.4
1038.161	-2.7
1038.584	-7.2
1039.008	-6.7
1039.431	-3.7
1039.854	-0.3
1040.277	-7.1
1040.7	-9.9
1041.123	0.7
1041.546	-7.1
1041.969	0.1
1042.392	-6.5
1042.815	1
1043.238	-0.8
1043.661	-1.7
1044.084	-5.5
1044.507	-3.9
1044.93	-6.1
1045.352	-3
1045.775	1.1
1046.198	-4.1
1046.621	-2.6
1047.043	0.3
1047.466	10.1
1047.889	-0.2
1048.311	-3.4
1048.734	-4
1049.156	-3.6
1049.579	-0.1
1050.001	-2.6
1050.424	-0.1
1050.846	-4.7
1051.269	-4.3
1051.691	-3.6
1052.113	-1.7
1052.536	-3.6
1052.958	-4.2
1053.38	-0.1
1053.802	-7.5
1054.225	3.6
1054.647	-5.1
1055.069	-8.1
1055.491	1.7
1055.913	-5.1
1056.335	3.6
1056.757	-4.2
1057.179	-5.6
1057.601	-4.1
1058.023	-2
1058.445	-2.6
1058.867	-6.5
1059.289	-4.6
1059.711	-5
1060.133	-3.8
1060.555	-6.6
1060.976	-6.2
1061.398	-4.3
1061.82	-1.8
1062.241	-4.7
1062.663	-5.4
1063.085	-6.7
1063.506	-1
1063.928	3.2
1064.35	3
1064.771	-6.9
1065.193	0.5
1065.614	-8.1
1066.035	1
1066.457	-3
1066.878	0.8
1067.3	-4
1067.721	1.2
1068.142	-4.5
1068.564	-3.5
1068.985	-8.4
1069.406	-7.9
1069.827	-8.3
1070.248	-3.1
1070.67	-9.2
1071.091	-1.6
1071.512	1.5
1071.933	-6.9
1072.354	-6.1
1072.775	-8.9
1073.196	-6
1073.617	-4.1
1074.038	-9.5
1074.459	-7.2
1074.88	-7.1
1075.3	-0.4
1075.721	-10.8
1076.142	-1.2
1076.563	-4.2
1076.983	-6.6
1077.404	-7.3
1077.825	-9.8
1078.246	-5.7
1078.666	-7.2
1079.087	-2.5
1079.507	-3
1079.928	1.1
1080.348	0.7
1080.769	-3.4
1081.189	3.1
1081.61	-4.4
1082.03	-4.8
1082.451	-2.5
1082.871	-3.3
1083.291	-4.8
1083.711	-5.7
1084.132	-3.6
1084.552	-7.5
1084.972	0.7
1085.392	-6.4
1085.813	-8.4
1086.233	-6.3
1086.653	-6.6
1087.073	1.8
1087.493	-11.7
1087.913	-6.6
1088.333	-6.4
1088.753	-2.4
1089.173	1.2
1089.593	-7.8
1090.013	-1.4
1090.433	-1.6
1090.852	2.9
1091.272	-4.2
1091.692	1.7
1092.112	-5.6
1092.531	-9.2
1092.951	-7.5
1093.371	-4
1093.79	-2.7
1094.21	0.8
1094.63	-7.9
1095.049	-8.2
1095.469	-7.4
1095.888	-7.5
1096.308	3.3
1096.727	7.1
1097.146	-2.1
1097.566	-2.4
1097.985	-7.6
1098.405	2.1
1098.824	-6.4
1099.243	-3.3
1099.662	-3.9
1100.082	-6.8
1100.501	-4.2
1100.92	-8.8
1101.339	-4.8
1101.758	-3.8
