Data from 20171114-ORNL-Ar_H_NY_Subt18_08-08-21-116.txt Node
Date: Tue Nov 14 08:08:21 EST 2017
User: Ender
Spectrometer: HR+D1039
Trigger mode: 0
Integration Time (sec): 2.730000E-2
Scans to average: 10
Electric dark correction enabled: true
Nonlinearity correction enabled: false
Boxcar width: 0
XAxis mode: Wavelengths
Number of Pixels in Spectrum: 2048
>>>>>Begin Spectral Data<<<<<
187.836	-3.86
188.309	-3.86
188.782	-3.86
189.255	-2.66
189.728	-2.16
190.201	2.74
190.674	-0.26
191.147	-0.16
191.619	-10.96
192.092	2.24
192.565	10.04
193.038	1.54
193.511	0.14
193.984	-1.56
194.456	-3.46
194.929	3.24
195.402	5.34
195.874	-0.26
196.347	-4.86
196.82	-6.96
197.292	6.44
197.765	-1.06
198.237	-10.56
198.71	-1.36
199.182	-1.66
199.655	1.04
200.127	2.14
200.6	-2.76
201.072	-3.16
201.544	-3.46
202.017	-6.46
202.489	5.64
202.961	-11.06
203.433	-1.16
203.906	-6.56
204.378	-9.36
204.85	-10.66
205.322	-11.56
205.794	-2.16
206.266	-4.26
206.739	-4.66
207.211	-0.96
207.683	-6.56
208.155	-4.96
208.627	-9.46
209.099	-3.86
209.57	-11.76
210.042	-3.96
210.514	-5.26
210.986	-4.36
211.458	-4.26
211.93	-0.06
212.402	4.24
212.873	-10.76
213.345	-12.16
213.817	-14.86
214.288	-3.36
214.76	-15.56
215.232	-7.16
215.703	-3.86
216.175	-7.86
216.646	-6.16
217.118	-8.76
217.589	-6.16
218.061	-5.16
218.532	-6.06
219.004	-2.76
219.475	-0.56
219.946	-3.06
220.418	-8.96
220.889	1.74
221.36	-2.46
221.832	-9.26
222.303	-8.96
222.774	-2.96
223.245	-7.86
223.717	-9.56
224.188	-10.46
224.659	-8.16
225.13	-8.16
225.601	-6.96
226.072	-1.06
226.543	-0.86
227.014	-2.06
227.485	1.14
227.956	-4.36
228.427	-1.06
228.898	-0.06
229.369	7.24
229.839	-3.36
230.31	-1.76
230.781	-5.96
231.252	-5.56
231.722	-4.36
232.193	-1.76
232.664	-2.36
233.135	-3.06
233.605	-1.26
234.076	-10.16
234.546	0.84
235.017	0.34
235.487	-0.36
235.958	1.34
236.428	-0.36
236.899	7.34
237.369	7.74
237.84	0.64
238.31	0.14
238.78	-2.66
239.251	-2.76
239.721	3.14
240.191	2.94
240.662	-1.56
241.132	6.94
241.602	-7.16
242.072	-3.56
242.542	4.84
243.013	0.84
243.483	6.14
243.953	1.84
244.423	0.54
244.893	-3.06
245.363	4.34
245.833	2.74
246.303	-3.56
246.773	4.14
247.243	6.44
247.712	-4.16
248.182	9.44
248.652	7.84
249.122	-4.76
249.592	9.04
250.061	15.04
250.531	30.04
251.001	11.04
251.471	16.64
251.94	13.14
252.41	2.14
252.879	-1.76
253.349	13.84
253.818	6.64
254.288	6.54
254.757	5.14
255.227	-1.66
255.696	0.44
256.166	4.24
256.635	9.74
257.105	4.54
257.574	9.04
258.043	5.54
258.513	12.34
258.982	16.74
259.451	7.44
259.92	7.34
260.389	8.44
260.859	8.44
261.328	15.44
261.797	16.94
262.266	5.44
262.735	12.44
263.204	8.44
263.673	-5.66
264.142	4.34
264.611	-1.66
265.08	1.14
265.549	-1.26
266.018	6.54
266.487	-2.36
266.955	-5.26
267.424	4.44
267.893	9.44
268.362	-7.26
268.83	2.24
269.299	9.94
269.768	7.64
270.236	6.64
270.705	-2.66
271.174	2.34
271.642	7.04
272.111	13.64
272.579	9.64
273.048	23.64
273.516	25.64
273.985	24.74
274.453	19.44
274.922	12.54
275.39	8.64
275.858	2.54
276.327	7.04
276.795	14.84
277.263	12.54
277.731	25.94
278.2	45.94
278.668	49.94
279.136	45.04
279.604	17.04
280.072	14.34
280.54	8.94
281.008	11.64
281.477	13.44
281.945	6.54
282.413	11.64
282.881	15.04
283.348	7.14
283.816	13.64
284.284	15.14
284.752	17.44
285.22	12.84
285.688	15.14
286.156	21.74
286.623	41.04
287.091	48.04
287.559	22.34
288.026	13.14
288.494	17.34
288.962	-4.96
289.429	3.84
289.897	19.64
290.364	11.14
290.832	20.04
291.3	17.44
291.767	19.14
292.234	17.84
292.702	12.54
293.169	16.94
293.637	22.74
294.104	23.64
294.571	5.64
295.039	14.74
295.506	14.64
295.973	14.04
296.44	15.64
296.908	19.54
297.375	15.84
297.842	16.64
298.309	20.84
298.776	10.14
299.243	16.14
299.71	9.74
300.177	20.54
300.644	19.24
301.111	15.14
301.578	21.74
302.045	20.14
302.512	19.34
302.979	22.14
303.446	18.74
303.913	15.24
304.379	14.94
304.846	22.64
305.313	22.44
305.78	22.84
306.246	21.64
306.713	22.74
307.18	24.94
307.646	21.34
308.113	21.24
308.579	23.94
309.046	28.34
309.512	20.44
309.979	18.94
310.445	25.94
310.912	27.34
311.378	37.84
311.845	22.84
312.311	30.84
312.777	25.24
313.244	26.54
313.71	36.14
314.176	28.94
314.642	28.04
315.109	32.54
315.575	36.24
316.041	34.94
316.507	29.74
316.973	38.14
317.439	30.14
317.905	34.24
318.371	36.84
318.837	35.84
319.303	33.64
319.769	32.54
320.235	34.34
320.701	33.24
321.167	29.74
321.633	34.14
322.099	40.94
322.564	41.74
323.03	37.24
323.496	38.44
323.962	46.64
324.427	32.54
324.893	43.64
325.359	34.44
325.824	35.94
326.29	39.44
326.755	36.44
327.221	37.84
327.686	36.94
328.152	42.24
328.617	42.44
329.083	40.74
329.548	47.04
330.014	45.94
330.479	33.24
330.944	41.74
331.41	38.74
331.875	44.24
332.34	40.14
332.805	42.54
333.271	49.74
333.736	36.64
334.201	46.84
334.666	50.64
335.131	49.64
335.596	46.44
336.061	49.34
336.526	39.94
336.991	45.94
337.456	52.54
337.921	44.94
338.386	39.34
338.851	42.54
339.316	40.04
339.781	44.84
340.246	48.14
340.711	46.04
341.175	44.14
341.64	43.94
342.105	48.44
342.569	53.24
343.034	52.14
343.499	52.74
343.963	51.14
344.428	59.44
344.893	59.14
345.357	54.44
345.822	62.44
346.286	73.64
346.751	71.04
347.215	62.24
347.679	70.74
348.144	97.34
348.608	78.54
349.073	70.74
349.537	70.74
350.001	75.64
350.465	83.14
350.93	82.84
351.394	82.44
351.858	70.54
352.322	81.04
352.786	77.64
353.25	103.44
353.715	110.94
354.179	101.74
354.643	127.34
355.107	127.74
355.571	106.64
356.035	101.84
356.498	116.34
356.962	124.44
357.426	135.34
357.89	123.04
358.354	89.74
358.818	83.34
359.281	80.24
359.745	78.04
360.209	76.64
360.673	78.84
361.136	79.44
361.6	80.24
362.064	82.14
362.527	81.14
362.991	81.24
363.454	85.34
363.918	78.04
364.381	78.84
364.845	83.84
365.308	89.54
365.772	88.24
366.235	88.74
366.698	84.44
367.162	86.24
367.625	90.74
368.088	88.74
368.552	84.44
369.015	84.14
369.478	98.64
369.941	104.34
370.404	95.44
370.867	100.14
371.331	111.24
371.794	117.04
372.257	113.14
372.72	120.44
373.183	106.64
373.646	105.44
374.109	106.24
374.572	112.74
375.035	107.84
375.497	112.94
375.96	110.04
376.423	101.44
376.886	111.74
377.349	108.24
377.811	96.14
378.274	109.74
378.737	109.74
379.199	112.94
379.662	112.04
380.125	119.64
380.587	115.34
381.05	125.14
381.512	131.74
381.975	133.94
382.437	133.14
382.9	129.74
383.362	134.34
383.825	144.04
384.287	152.24
384.75	145.24
385.212	138.94
385.674	141.64
386.136	139.94
386.599	128.74
387.061	133.34
387.523	137.94
387.985	139.44
388.447	153.74
388.91	149.14
389.372	162.04
389.834	156.84
390.296	144.84
390.758	159.14
391.22	178.54
391.682	210.44
392.144	309.64
392.606	229.74
393.068	171.74
393.529	168.54
393.991	157.44
394.453	150.24
394.915	157.54
395.377	196.54
395.838	220.04
396.3	155.54
396.762	144.64
397.224	127.24
397.685	134.84
398.147	129.94
398.608	131.34
399.07	127.14
399.531	138.84
399.993	142.84
400.454	155.64
400.916	145.74
401.377	145.04
401.839	148.84
402.3	154.74
402.762	168.94
403.223	177.64
403.684	179.54
404.145	164.84
404.607	165.54
405.068	172.14
405.529	178.84
405.99	187.34
406.451	180.74
406.913	180.84
407.374	166.84
407.835	164.64
408.296	172.44
408.757	180.24
409.218	199.44
409.679	190.74
410.14	176.24
410.601	179.14
411.062	186.24
411.522	194.34
411.983	192.54
412.444	178.04
412.905	187.24
413.366	186.24
413.826	194.94
414.287	222.84
414.748	264.24
415.208	248.04
415.669	211.74
416.13	208.84
416.59	201.74
417.051	215.54
417.511	221.84
417.972	246.64
418.432	252.14
418.893	294.74
419.353	256.44
419.814	202.64
420.274	192.44
420.734	186.94
421.195	207.24
421.655	204.14
422.115	197.74
422.576	205.34
423.036	199.94
423.496	209.44
423.956	217.04
424.416	238.14
424.876	270.54
425.336	261.84
425.797	270.04
426.257	258.94
426.717	247.74
427.177	244.64
427.637	232.74
428.097	245.24
428.556	253.24
429.016	283.04
429.476	272.64
429.936	285.14
430.396	283.44
430.856	300.94
431.315	329.74
431.775	366.44
432.235	390.24
432.694	359.64
433.154	372.84
433.614	409.24
434.073	351.94
434.533	299.24
434.993	281.04
435.452	288.24
435.912	309.74
436.371	300.14
436.83	289.54
437.29	278.54
437.749	257.54
438.209	252.04
438.668	274.64
439.127	293.64
439.587	273.84
440.046	255.64
440.505	265.84
440.964	284.34
441.424	331.74
441.883	317.94
442.342	265.84
442.801	228.54
443.26	224.84
443.719	228.14
444.178	222.44
444.637	214.74
445.096	232.84
445.555	226.84
446.014	233.34
446.473	234.34
446.932	238.54
447.391	237.24
447.849	228.34
448.308	221.14
448.767	226.74
449.226	242.04
449.685	244.14
450.143	250.14
450.602	244.54
451.061	226.34
451.519	242.14
451.978	239.04
452.436	237.14
452.895	241.74
453.353	259.44
453.812	241.34
454.27	238.64
454.729	240.14
455.187	249.84
455.646	253.14
456.104	246.44
456.562	273.44
457.021	268.54
457.479	271.24
457.937	277.34
458.395	267.34
458.854	249.14
459.312	259.84
459.77	282.24
460.228	266.04
460.686	247.84
461.144	253.24
461.602	245.54
462.06	249.34
462.518	260.54
462.976	261.44
463.434	263.74
463.892	268.04
464.35	280.94
464.808	290.94
465.266	263.14
465.724	276.64
466.181	280.74
466.639	275.14
467.097	291.14
467.555	302.74
468.012	305.74
468.47	311.04
468.928	327.44
469.385	342.84
469.843	355.64
470.3	347.84
470.758	366.14
471.215	392.24
471.673	414.74
472.13	412.74
472.588	435.84
473.045	385.84
473.503	386.34
473.96	404.14
474.417	412.54
474.875	439.54
475.332	490.64
475.789	468.34
476.246	472.44
476.704	489.14
477.161	507.14
477.618	530.84
478.075	574.84
478.532	632.34
478.989	692.74
479.446	819.44
479.903	785.74
480.36	817.34
480.817	880.04
481.274	968.64
481.731	1084.04
482.188	1162.94
482.645	1309.34
483.102	1417.94
483.558	1554.74
484.015	1598.74
484.472	1578.84
484.929	1512.94
485.385	1473.44
485.842	1425.74
486.299	1369.64
486.755	1310.74
487.212	1112.54
487.668	941.64
488.125	861.04
488.582	784.34
489.038	748.14
489.494	717.64
489.951	690.44
490.407	675.94
490.864	647.14
491.32	649.04
491.776	644.04
492.233	653.04
492.689	619.54
493.145	614.14
493.602	603.84
494.058	613.54
494.514	621.24
494.97	636.04
495.426	660.14
495.882	624.94
496.338	626.24
496.794	634.84
497.251	623.64
497.707	631.94
498.163	632.34
498.618	642.64
499.074	647.54
499.53	681.14
499.986	677.24
500.442	654.04
500.898	630.34
501.354	635.54
501.809	652.04
502.265	662.64
502.721	672.54
503.177	682.14
503.632	668.74
504.088	682.74
504.543	720.54
504.999	712.94
505.455	669.14
505.91	633.94
506.366	636.54
506.821	633.94
507.277	622.24
507.732	633.14
508.187	634.44
508.643	630.14
509.098	646.44
509.553	664.04
510.009	670.54
510.464	676.64
510.919	693.54
511.375	696.74
511.83	715.24
512.285	724.64
512.74	751.74
513.195	782.14
513.65	769.34
514.105	771.84
514.56	769.74
515.015	787.24
515.47	809.64
515.925	790.74
516.38	792.34
516.835	793.54
517.29	779.34
517.745	781.74
518.2	772.54
518.655	748.74
519.109	745.14
519.564	745.64
520.019	726.34
520.474	722.94
520.928	722.74
521.383	722.14
521.838	713.54
522.292	711.44
522.747	715.34
523.201	706.84
523.656	704.64
524.11	701.04
524.565	694.64
525.019	706.34
525.474	710.34
525.928	713.34
526.382	699.74
526.837	694.74
527.291	707.14
527.745	696.44
528.2	708.04
528.654	694.84
529.108	697.24
529.562	687.24
530.016	692.64
530.47	698.14
530.925	700.94
531.379	701.24
531.833	707.54
532.287	697.34
532.741	702.44
533.195	703.04
533.649	712.64
534.103	717.14
534.556	707.04
535.01	705.04
535.464	709.74
535.918	717.34
536.372	716.74
536.826	715.14
537.279	704.54
537.733	710.54
538.187	715.34
538.64	717.24
539.094	725.24
539.548	731.04
540.001	727.54
540.455	726.34
540.908	732.84
541.362	746.04
541.815	754.74
542.269	762.34
542.722	765.14
543.175	773.54
543.629	784.04
544.082	787.54
544.536	788.14
544.989	784.34
545.442	787.34
545.895	793.74
546.349	795.24
546.802	802.24
547.255	795.74
547.708	799.84
548.161	817.74
548.614	819.94
549.067	830.24
549.52	818.84
549.973	810.74
550.426	800.34
550.879	800.94
551.332	801.84
551.785	798.34
552.238	811.84
552.691	831.34
553.144	832.44
553.596	843.34
554.049	862.44
554.502	884.54
554.955	908.94
555.407	910.64
555.86	896.84
556.313	899.54
556.765	889.64
557.218	891.24
557.67	888.54
558.123	879.44
558.576	861.34
559.028	869.24
559.48	884.74
559.933	882.34
560.385	844.54
560.838	812.94
561.29	787.44
561.742	781.54
562.195	770.74
562.647	757.14
563.099	783.44
563.551	780.64
564.004	781.44
564.456	773.34
564.908	770.64
565.36	747.24
565.812	734.34
566.264	728.94
566.716	734.54
567.168	720.84
567.62	730.94
568.072	711.64
568.524	700.34
568.976	700.14
569.428	678.04
569.88	687.04
570.332	685.64
570.784	685.74
571.235	678.34
571.687	706.24
572.139	706.44
572.59	717.24
573.042	713.04
573.494	718.64
573.945	712.94
574.397	681.54
574.849	688.24
575.3	702.24
575.752	690.04
576.203	687.64
576.655	679.24
577.106	676.04
577.557	681.74
578.009	667.34
578.46	667.14
578.912	656.74
579.363	664.84
579.814	673.84
580.265	666.14
580.717	669.44
581.168	671.44
581.619	678.04
582.07	677.64
582.521	682.64
582.972	681.14
583.423	683.14
583.875	681.84
584.326	709.44
584.777	752.94
585.227	839.24
585.678	937.74
586.129	1020.04
586.58	1097.04
587.031	1180.14
587.482	1323.84
587.933	1515.74
588.384	1324.14
588.834	991.34
589.285	818.34
589.736	792.54
590.186	780.34
590.637	773.64
591.088	761.04
591.538	751.34
591.989	745.94
592.439	737.24
592.89	729.04
593.34	721.34
593.791	713.64
594.241	711.24
594.692	714.14
595.142	702.04
595.593	708.34
596.043	710.84
596.493	721.74
596.943	726.84
597.394	739.64
597.844	714.64
598.294	738.34
598.744	762.54
599.195	787.44
599.645	821.84
600.095	866.74
600.545	926.04
600.995	980.34
601.445	1037.24
601.895	1089.74
602.345	1143.44
602.795	1126.64
603.245	1073.64
603.695	1018.24
604.145	959.64
604.594	916.34
605.044	867.84
605.494	809.44
605.944	756.44
606.393	748.44
606.843	728.04
607.293	736.64
607.743	750.74
608.192	760.34
608.642	767.14
609.091	780.44
609.541	785.64
609.99	785.74
610.44	777.24
610.889	727.34
611.339	718.34
611.788	700.74
612.238	708.94
612.687	732.24
613.136	727.94
613.586	748.84
614.035	750.14
614.484	763.74
614.933	774.14
615.383	765.14
615.832	750.14
616.281	735.24
616.73	694.24
617.179	679.24
617.628	663.04
618.077	642.94
618.526	638.94
618.975	623.24
619.424	621.04
619.873	621.94
620.322	618.94
620.771	619.64
621.22	605.64
621.669	602.24
622.118	592.74
622.567	582.94
623.015	575.34
623.464	577.74
623.913	570.34
624.361	551.14
624.81	549.44
625.259	556.54
625.707	558.74
626.156	555.64
626.604	574.74
627.053	569.64
627.501	575.14
627.95	567.54
628.398	596.74
628.847	570.24
629.295	564.94
629.744	581.14
630.192	576.34
630.64	570.74
631.089	578.24
631.537	579.04
631.985	590.94
632.433	615.84
632.881	622.54
633.33	670.04
633.778	649.64
634.226	573.44
634.674	578.74
635.122	580.84
635.57	609.84
636.018	639.44
636.466	586.94
636.914	565.74
637.362	580.44
637.81	578.14
638.258	588.64
638.705	596.94
639.153	623.44
639.601	628.54
640.049	653.04
640.497	674.04
640.944	693.84
641.392	650.24
641.84	624.64
642.287	599.44
642.735	589.94
643.182	574.64
643.63	595.24
644.078	590.84
644.525	597.84
644.973	603.54
645.42	617.04
645.867	627.64
646.315	647.24
646.762	677.64
647.21	702.14
647.657	723.84
648.104	767.94
648.551	785.24
648.999	842.94
649.446	927.14
649.893	1032.74
650.34	1181.44
650.787	1417.24
651.234	1766.14
651.682	2306.34
652.129	3203.24
652.576	4604.84
653.023	6757.04
653.47	9274.24
653.917	11424.64
654.363	13056.84
654.81	14387.64
655.257	13677.04
655.704	8962.04
656.151	5301.14
656.598	3436.84
657.044	2432.54
657.491	1881.84
657.938	1504.04
658.385	1253.14
658.831	1094.34
659.278	981.04
659.724	880.94
660.171	798.04
660.618	729.34
661.064	697.64
661.511	675.74
661.957	663.94
662.404	651.64
662.85	659.54
663.296	640.14
663.743	569.74
664.189	544.14
664.635	540.34
665.082	529.44
665.528	536.44
665.974	522.74
666.42	516.94
666.867	521.34
667.313	494.24
667.759	485.64
668.205	485.94
668.651	493.84
669.097	494.64
669.543	505.84
669.989	472.74
670.435	456.54
670.881	450.74
671.327	446.24
671.773	475.24
672.219	495.44
672.665	551.04
673.11	595.74
673.556	634.14
674.002	677.84
674.448	657.34
674.893	555.24
675.339	478.34
675.785	446.24
676.23	428.94
676.676	399.34
677.122	394.44
677.567	375.24
678.013	366.44
678.458	374.64
678.904	370.14
679.349	353.94
679.794	362.14
680.24	352.44
680.685	353.64
681.131	347.54
681.576	356.14
682.021	365.14
682.466	359.24
682.912	350.04
683.357	360.34
683.802	390.14
684.247	424.34
684.692	466.44
685.137	507.74
685.583	545.24
686.028	563.14
686.473	529.24
686.918	451.04
687.363	422.24
687.807	402.34
688.252	366.04
688.697	363.94
689.142	339.54
689.587	334.64
690.032	328.24
690.477	347.04
690.921	354.64
691.366	394.14
691.811	408.24
692.255	436.54
692.7	472.94
693.145	515.94
693.589	718.14
694.034	1165.54
694.478	1575.74
694.923	1751.14
695.367	2269.84
695.812	1190.34
696.256	503.74
696.701	381.44
697.145	346.04
697.59	341.54
698.034	320.24
698.478	331.94
698.922	336.84
699.367	325.14
699.811	342.64
700.255	360.84
700.699	397.54
701.143	440.14
701.588	488.24
702.032	529.44
702.476	514.94
702.92	497.84
703.364	497.84
703.808	662.24
704.252	1081.24
704.696	1495.44
705.14	1679.14
705.584	2130.54
706.027	1067.14
706.471	524.34
706.915	398.44
707.359	355.64
707.803	324.14
708.246	310.74
708.69	322.44
709.134	313.64
709.577	320.74
710.021	326.84
710.465	306.14
710.908	299.24
711.352	301.64
711.795	317.94
712.239	363.14
712.682	394.14
713.126	420.34
713.569	467.14
714.012	371.34
714.456	330.64
714.899	306.44
715.342	277.84
715.786	269.94
716.229	266.04
716.672	255.44
717.115	254.24
717.558	251.64
718.002	251.14
718.445	266.04
718.888	290.84
719.331	295.34
719.774	316.54
720.217	305.84
720.66	282.74
721.103	266.94
721.546	260.14
721.989	253.24
722.432	239.84
722.874	247.34
723.317	240.14
723.76	245.14
724.203	261.34
724.645	323.14
725.088	460.24
725.531	586.24
725.974	640.74
726.416	543.44
726.859	309.14
727.301	250.94
727.744	240.74
728.187	245.04
728.629	239.74
729.071	237.24
729.514	262.74
729.956	270.14
730.399	291.74
730.841	296.14
731.283	281.24
731.726	269.14
732.168	267.34
732.61	274.94
733.053	291.24
733.495	319.64
733.937	350.64
734.379	401.24
734.821	449.64
735.263	555.14
735.705	877.34
736.148	1641.34
736.59	2630.44
737.032	3060.24
737.474	2499.74
737.916	816.94
738.357	434.94
738.799	325.44
739.241	301.24
739.683	287.94
740.125	288.04
740.567	304.34
741.008	317.14
741.45	322.04
741.892	323.04
742.334	347.74
742.775	356.14
743.217	342.84
743.658	274.14
744.1	251.94
744.542	263.64
744.983	316.74
745.425	340.24
745.866	337.84
746.307	286.94
746.749	286.74
747.19	337.14
747.632	480.34
748.073	932.04
748.514	1922.74
748.956	2881.04
749.397	3642.04
749.838	3015.74
750.279	2943.54
750.72	1496.04
751.162	552.04
751.603	330.44
752.044	257.14
752.485	225.84
752.926	214.44
753.367	203.64
753.808	199.04
754.249	194.34
754.69	189.84
755.131	182.24
755.572	189.54
756.013	182.34
756.453	194.64
756.894	193.24
757.335	187.94
757.776	192.14
758.216	201.04
758.657	204.94
759.098	203.14
759.538	234.94
759.979	274.74
760.42	386.74
760.86	744.54
761.301	1936.04
761.741	4548.74
762.182	6380.34
762.622	4481.64
763.063	1315.14
763.503	545.64
763.943	351.14
764.384	353.84
764.824	416.14
765.264	448.34
765.705	315.34
766.145	216.34
766.585	190.94
767.025	182.64
767.465	195.74
767.906	251.84
768.346	321.84
768.786	348.14
769.226	271.04
769.666	337.44
770.106	654.04
770.546	1634.84
770.986	2656.04
771.426	2352.24
771.866	803.64
772.306	340.84
772.745	208.54
773.185	171.74
773.625	178.94
774.065	163.64
774.505	197.54
774.944	319.64
775.384	704.04
775.824	1211.14
776.263	1167.24
776.703	503.64
777.142	224.24
777.582	161.74
778.021	142.94
778.461	140.94
778.9	147.14
779.34	136.74
779.779	119.34
780.219	112.04
780.658	111.44
781.097	115.74
781.537	121.14
781.976	112.54
782.415	102.44
782.855	107.24
783.294	100.44
783.733	106.74
784.172	109.34
784.611	107.84
785.05	109.34
785.489	114.24
785.928	119.24
786.367	117.44
786.806	119.04
787.245	127.94
787.684	137.14
788.123	145.84
788.562	134.94
789.001	125.74
789.44	124.94
789.879	122.14
790.317	123.24
790.756	131.14
791.195	130.34
791.634	147.84
792.072	211.34
792.511	391.74
792.95	1061.04
793.388	2142.34
793.827	1911.24
794.265	687.64
794.704	287.04
795.142	187.94
795.581	161.54
796.019	144.34
796.458	124.34
796.896	128.34
797.334	128.54
797.773	154.34
798.211	222.94
798.649	463.14
799.087	1058.84
799.526	1622.04
799.964	2057.64
800.402	1996.54
800.84	769.84
801.278	298.14
801.716	188.74
802.154	156.24
802.592	144.04
803.03	141.04
803.468	136.14
803.906	147.04
804.344	154.84
804.782	140.54
805.22	134.14
805.658	132.94
806.096	146.44
806.533	159.34
806.971	177.64
807.409	223.84
807.847	323.74
808.284	699.54
808.722	1929.14
809.16	3312.44
809.597	3206.44
810.035	5503.14
810.472	5684.84
810.91	2080.14
811.347	804.34
811.785	411.54
812.222	255.84
812.66	196.34
813.097	161.94
813.535	141.14
813.972	125.74
814.409	119.24
814.846	114.84
815.284	110.14
815.721	102.54
816.158	109.24
816.595	124.64
817.032	182.94
817.47	204.54
817.907	170.94
818.344	158.44
818.781	120.54
819.218	103.94
819.655	130.54
820.092	184.24
820.529	209.64
820.966	170.94
821.403	129.14
821.839	105.64
822.276	104.84
822.713	122.84
823.15	136.24
823.587	113.54
824.023	150.94
824.46	320.74
824.897	923.44
825.333	1355.54
825.77	583.54
826.206	233.84
826.643	135.24
827.08	101.54
827.516	82.04
827.953	79.64
828.389	76.64
828.825	72.44
829.262	64.64
829.698	68.94
830.135	69.34
830.571	64.94
831.007	67.84
831.443	64.64
831.88	62.34
832.316	64.34
832.752	70.54
833.188	70.34
833.624	64.24
834.06	61.74
834.497	65.14
834.933	70.74
835.369	72.14
835.805	68.04
836.241	74.34
836.677	87.04
837.112	93.94
837.548	113.24
837.984	135.84
838.42	204.14
838.856	523.34
839.292	1560.24
839.727	2293.24
840.163	1064.34
840.599	971.54
841.034	2072.24
841.47	2099.04
841.906	781.84
842.341	346.74
842.777	236.34
843.212	317.04
843.648	303.74
844.083	155.64
844.519	101.14
844.954	78.84
845.39	66.84
845.825	52.24
846.261	55.74
846.696	60.44
847.131	52.64
847.566	53.64
848.002	49.84
848.437	56.74
848.872	62.54
849.307	61.04
849.742	92.84
850.177	186.24
850.613	582.04
851.048	882.44
851.483	383.14
851.918	154.14
852.353	84.04
852.788	66.94
853.223	56.34
853.657	51.14
854.092	47.34
854.527	43.44
854.962	39.84
855.397	46.74
855.832	52.44
856.266	46.64
856.701	38.34
857.136	39.34
857.57	39.74
858.005	43.74
858.44	63.94
858.874	43.04
859.309	58.84
859.743	33.94
860.178	46.44
860.612	43.94
861.047	55.24
861.481	69.64
861.915	72.64
862.35	49.54
862.784	41.24
863.218	42.94
863.653	34.34
864.087	39.34
864.521	51.74
864.955	66.74
865.39	156.44
865.824	179.34
866.258	116.84
866.692	160.84
867.126	172.34
867.56	103.84
867.994	47.64
868.428	41.64
868.862	44.14
869.296	53.04
869.73	58.44
870.164	52.04
870.598	51.34
871.031	36.54
871.465	32.44
871.899	35.34
872.333	22.84
872.766	24.44
873.2	27.44
873.634	28.14
874.067	27.54
874.501	29.44
874.935	36.84
875.368	30.94
875.802	28.74
876.235	18.64
876.669	23.04
877.102	29.54
877.535	30.84
877.969	21.84
878.402	24.04
878.836	17.74
879.269	23.24
879.702	22.94
880.135	21.34
880.569	24.14
881.002	29.64
881.435	22.54
881.868	19.14
882.301	21.64
882.734	20.64
883.167	24.84
883.601	21.74
884.034	23.94
884.467	18.34
884.899	15.84
885.332	15.44
885.765	16.44
886.198	19.04
886.631	19.84
887.064	19.84
887.497	27.24
887.929	21.14
888.362	14.44
888.795	16.64
889.228	13.74
889.66	18.44
890.093	16.84
890.526	17.84
890.958	18.04
891.391	21.74
891.823	18.54
892.256	14.24
892.688	17.94
893.121	14.64
893.553	16.04
893.985	22.64
894.418	17.64
894.85	9.34
895.282	13.64
895.715	12.54
896.147	14.64
896.579	12.44
897.011	12.94
897.444	26.14
897.876	10.54
898.308	18.64
898.74	16.44
899.172	11.24
899.604	20.04
900.036	20.54
900.468	16.34
900.9	14.54
901.332	16.04
901.764	9.24
902.196	20.24
902.628	15.34
903.06	21.14
903.491	24.24
903.923	23.44
904.355	18.74
904.787	24.74
905.218	22.54
905.65	18.24
906.082	16.04
906.513	5.74
906.945	11.64
907.376	14.14
907.808	21.74
908.239	21.84
908.671	18.94
909.102	17.04
909.534	26.44
909.965	47.64
910.397	95.94
910.828	317.04
911.259	478.34
911.691	211.54
912.122	106.14
912.553	50.74
912.984	30.94
913.415	27.44
913.847	18.54
914.278	14.74
914.709	12.04
915.14	14.14
915.571	17.84
916.002	11.44
916.433	22.94
916.864	19.04
917.295	9.94
917.726	21.64
918.157	17.84
918.587	25.94
919.018	23.24
919.449	26.54
919.88	26.74
920.311	27.34
920.741	51.94
921.172	166.34
921.603	148.54
922.033	68.14
922.464	48.44
922.895	21.14
923.325	24.54
923.756	14.44
924.186	14.74
924.617	24.14
925.047	40.84
925.478	54.54
925.908	43.44
926.338	26.24
926.769	11.14
927.199	22.04
927.629	2.74
928.06	15.44
928.49	12.34
928.92	13.24
929.35	10.34
929.78	8.64
930.21	8.74
930.641	5.94
931.071	5.14
931.501	1.34
931.931	7.24
932.361	6.34
932.791	-0.36
933.221	6.94
933.651	2.44
934.08	14.04
934.51	28.94
934.94	11.04
935.37	13.44
935.8	12.84
936.229	7.24
936.659	12.44
937.089	3.44
937.519	10.34
937.948	29.24
938.378	11.94
938.807	1.14
939.237	2.94
939.666	5.94
940.096	-6.56
940.525	-2.16
940.955	4.64
941.384	2.54
941.814	-5.56
942.243	-2.66
942.672	5.64
943.102	-3.26
943.531	-2.16
943.96	6.84
944.39	-0.86
944.819	-3.46
945.248	5.04
945.677	4.04
946.106	-1.96
946.535	5.04
946.964	2.44
947.393	6.54
947.822	0.44
948.251	-0.46
948.68	0.34
949.109	8.44
949.538	10.24
949.967	0.84
950.396	5.44
950.825	-1.46
951.254	2.94
951.682	-5.46
952.111	-1.16
952.54	0.14
952.969	-6.86
953.397	-4.96
953.826	-1.86
954.254	-9.26
954.683	-2.26
955.112	-5.16
955.54	0.84
955.969	-2.46
956.397	0.94
956.826	-3.36
957.254	4.54
957.682	-1.36
958.111	5.04
958.539	1.14
958.967	-0.36
959.396	-0.96
959.824	-1.56
960.252	-1.46
960.68	-3.06
961.109	2.74
961.537	-0.56
961.965	-1.66
962.393	-3.76
962.821	-2.76
963.249	-3.56
963.677	5.94
964.105	3.54
964.533	37.74
964.961	43.64
965.389	16.64
965.817	9.14
966.245	2.94
966.672	-0.06
967.1	-6.76
967.528	3.74
967.956	-4.86
968.383	-0.46
968.811	-1.16
969.239	-2.26
969.666	-4.26
970.094	3.34
970.522	1.84
970.949	-0.06
971.377	-6.46
971.804	-6.96
972.232	0.54
972.659	-0.36
973.087	-4.46
973.514	-4.56
973.941	-8.56
974.369	3.14
974.796	0.24
975.223	-0.86
975.651	-5.06
976.078	4.54
976.505	-6.16
976.932	8.84
977.359	8.64
977.786	13.74
978.214	2.34
978.641	-6.16
979.068	-2.06
979.495	-7.46
979.922	-6.66
980.349	-5.76
980.776	1.64
981.202	-2.76
981.629	-3.26
982.056	3.64
982.483	-4.46
982.91	0.74
983.337	-6.36
983.763	2.24
984.19	-10.36
984.617	-10.96
985.043	-8.06
985.47	-2.76
985.897	-4.96
986.323	-9.06
986.75	3.74
987.176	-2.46
987.603	-1.66
988.029	2.04
988.456	1.64
988.882	-1.36
989.308	-7.96
989.735	-5.26
990.161	1.44
990.587	-5.86
991.014	-2.76
991.44	4.04
991.866	-2.36
992.292	-2.26
992.719	-2.96
993.145	-2.26
993.571	-5.06
993.997	-6.76
994.423	-3.06
994.849	-10.66
995.275	2.54
995.701	0.84
996.127	-4.46
996.553	3.44
996.979	-8.06
997.405	-5.86
997.83	-3.16
998.256	-3.96
998.682	-9.06
999.108	-7.36
999.534	-4.26
999.959	-1.26
1000.385	-6.36
1000.811	-3.36
1001.236	-8.26
1001.662	-4.06
1002.087	-13.16
1002.513	1.24
1002.938	0.54
1003.364	1.14
1003.789	-0.56
1004.215	3.44
1004.64	2.54
1005.066	-0.16
1005.491	4.34
1005.916	-1.46
1006.342	-4.66
1006.767	-6.96
1007.192	-1.06
1007.617	-4.66
1008.042	-7.36
1008.468	-10.66
1008.893	-4.96
1009.318	-7.96
1009.743	-4.06
1010.168	2.24
1010.593	5.84
1011.018	-9.66
1011.443	-4.46
1011.868	-0.46
1012.293	-7.06
1012.718	-5.56
1013.143	0.04
1013.567	0.74
1013.992	-7.66
1014.417	-7.06
1014.842	-0.66
1015.267	-8.86
1015.691	-7.76
1016.116	7.54
1016.541	-1.16
1016.965	2.14
1017.39	8.24
1017.814	-4.56
1018.239	-2.96
1018.663	-7.26
1019.088	-7.86
1019.512	-1.46
1019.937	0.54
1020.361	-3.16
1020.785	-8.26
1021.21	-9.96
1021.634	-3.76
1022.058	-0.46
1022.483	5.24
1022.907	-7.96
1023.331	-6.86
1023.755	-3.96
1024.179	2.64
1024.604	-12.26
1025.028	-7.36
1025.452	-4.66
1025.876	-6.96
1026.3	-4.36
1026.724	-8.66
1027.148	-7.06
1027.572	-7.06
1027.996	-5.46
1028.42	-5.46
1028.843	3.54
1029.267	-8.36
1029.691	-1.56
1030.115	-2.86
1030.539	-12.76
1030.962	-8.36
1031.386	-14.76
1031.81	0.14
1032.233	-3.66
1032.657	-0.76
1033.08	-4.36
1033.504	-5.76
1033.927	-1.76
1034.351	-0.76
1034.774	-6.46
1035.198	-5.46
1035.621	-3.76
1036.045	-10.36
1036.468	-1.66
1036.891	-15.66
1037.315	-9.16
1037.738	-10.66
1038.161	-2.16
1038.584	-5.76
1039.008	-0.56
1039.431	-2.76
1039.854	-2.06
1040.277	-9.46
1040.7	-13.96
1041.123	0.44
1041.546	-4.06
1041.969	-1.36
1042.392	-7.56
1042.815	-1.86
1043.238	1.44
1043.661	-8.46
1044.084	-7.16
1044.507	-7.96
1044.93	-7.36
1045.352	-7.16
1045.775	-3.46
1046.198	-6.36
1046.621	-4.86
1047.043	-3.56
1047.466	4.64
1047.889	0.04
1048.311	-10.56
1048.734	-0.36
1049.156	-8.06
1049.579	-5.56
1050.001	-5.66
1050.424	-5.46
1050.846	-7.26
1051.269	-7.36
1051.691	-9.56
1052.113	-5.16
1052.536	0.84
1052.958	-3.26
1053.38	-3.46
1053.802	-12.86
1054.225	-5.46
1054.647	-11.06
1055.069	-10.36
1055.491	-2.36
1055.913	-12.46
1056.335	-3.66
1056.757	0.24
1057.179	-7.46
1057.601	-8.36
1058.023	-10.46
1058.445	-5.46
1058.867	-4.56
1059.289	-1.36
1059.711	-10.86
1060.133	-3.06
1060.555	-1.26
1060.976	-10.16
1061.398	-13.66
1061.82	-8.96
1062.241	-10.16
1062.663	-10.66
1063.085	-7.26
1063.506	-2.46
1063.928	-8.76
1064.35	-6.76
1064.771	-10.46
1065.193	-5.46
1065.614	-7.76
1066.035	-3.66
1066.457	-7.36
1066.878	4.14
1067.3	-10.56
1067.721	-4.46
1068.142	-2.36
1068.564	1.84
1068.985	-0.76
1069.406	-5.56
1069.827	-6.46
1070.248	2.34
1070.67	-8.96
1071.091	-10.26
1071.512	-3.16
1071.933	-7.56
1072.354	-6.46
1072.775	-4.86
1073.196	-4.06
1073.617	0.64
1074.038	-3.46
1074.459	-3.76
1074.88	-11.16
1075.3	-0.86
1075.721	-10.06
1076.142	-5.56
1076.563	-4.66
1076.983	-10.36
1077.404	-5.26
1077.825	-12.86
1078.246	-3.16
1078.666	-14.56
1079.087	-4.06
1079.507	-5.36
1079.928	-4.76
1080.348	-6.16
1080.769	-6.66
1081.189	-5.76
1081.61	-5.96
1082.03	-2.36
1082.451	-8.96
1082.871	-3.06
1083.291	-10.86
1083.711	-10.86
1084.132	-7.66
1084.552	-9.46
1084.972	0.24
1085.392	-12.66
1085.813	-7.76
1086.233	-12.16
1086.653	-10.96
1087.073	-10.16
1087.493	-4.96
1087.913	-5.46
1088.333	-7.86
1088.753	-0.66
1089.173	-0.16
1089.593	-7.36
1090.013	-2.26
1090.433	-1.76
1090.852	-9.06
1091.272	-2.36
1091.692	-6.56
1092.112	-0.96
1092.531	-8.86
1092.951	-13.86
1093.371	-9.36
1093.79	0.74
1094.21	-9.36
1094.63	-8.96
1095.049	-4.96
1095.469	-7.36
1095.888	-6.16
1096.308	-4.66
1096.727	2.54
1097.146	-5.86
1097.566	0.24
1097.985	-7.16
1098.405	-5.96
1098.824	-6.76
1099.243	-11.76
1099.662	-14.36
1100.082	-4.26
1100.501	-6.16
1100.92	-7.56
1101.339	-2.46
1101.758	-8.36
