Data from 20171114-ORNL-Ar_H_NY_Subt18_08-03-10-470.txt Node
Date: Tue Nov 14 08:03:10 EST 2017
User: Ender
Spectrometer: HR+D1039
Trigger mode: 0
Integration Time (sec): 2.730000E-2
Scans to average: 10
Electric dark correction enabled: true
Nonlinearity correction enabled: false
Boxcar width: 0
XAxis mode: Wavelengths
Number of Pixels in Spectrum: 2048
>>>>>Begin Spectral Data<<<<<
187.836	-4.4
188.309	-4.4
188.782	-4.4
189.255	0.5
189.728	-2.6
190.201	7.5
190.674	4
191.147	3.5
191.619	-5.6
192.092	-0.5
192.565	5.3
193.038	-2.5
193.511	-0.1
193.984	-4.2
194.456	-1.8
194.929	2.9
195.402	-4.6
195.874	2.6
196.347	-6.3
196.82	-11.2
197.292	8
197.765	-2.7
198.237	-9.8
198.71	0.4
199.182	-1.5
199.655	5.3
200.127	0.1
200.6	-6.1
201.072	-0.8
201.544	-5.5
202.017	-1.9
202.489	2.3
202.961	-2.4
203.433	-6.6
203.906	-6.1
204.378	0.3
204.85	-1.4
205.322	-9.6
205.794	0.6
206.266	-4.9
206.739	-8.1
207.211	4.3
207.683	-9.6
208.155	-0.6
208.627	-3.7
209.099	-7.7
209.57	-8.4
210.042	-4.7
210.514	-6.7
210.986	-0.7
211.458	-12.6
211.93	2.7
212.402	0.9
212.873	-11.1
213.345	-4.7
213.817	-12.9
214.288	-1.4
214.76	-14.5
215.232	-3.2
215.703	-6.5
216.175	-5.5
216.646	-8.2
217.118	-9.7
217.589	-4.6
218.061	-3.1
218.532	-1.2
219.004	-0.7
219.475	-2.8
219.946	-2.6
220.418	-1.2
220.889	-4.8
221.36	-0.2
221.832	-2.9
222.303	-7.6
222.774	-0.8
223.245	-8.5
223.717	-6.1
224.188	-10.3
224.659	-8.3
225.13	-2.1
225.601	-5.7
226.072	-4.9
226.543	-0.8
227.014	-2.7
227.485	-4.7
227.956	-3.2
228.427	2.3
228.898	-4.4
229.369	0.4
229.839	-4.7
230.31	-12.5
230.781	-3.7
231.252	-3
231.722	-10
232.193	-13.1
232.664	-4.1
233.135	1.3
233.605	-2.7
234.076	-2.3
234.546	0.5
235.017	-0
235.487	-9.9
235.958	-5.5
236.428	-12.5
236.899	-3.9
237.369	-3.2
237.84	-12.3
238.31	2.1
238.78	-8.9
239.251	-3.6
239.721	-2.5
240.191	0.1
240.662	-5
241.132	-2.8
241.602	-11.1
242.072	-7.6
242.542	1.9
243.013	-4.6
243.483	-1.2
243.953	-1.3
244.423	-1.8
244.893	-8.1
245.363	-0.8
245.833	6.5
246.303	-7.2
246.773	0.8
247.243	-4.7
247.712	-2.8
248.182	-4.9
248.652	-0.9
249.122	-13.8
249.592	-8.2
250.061	-4.4
250.531	1.4
251.001	-4.4
251.471	0.9
251.94	0.6
252.41	-4.7
252.879	-10.3
253.349	-1.9
253.818	3.8
254.288	-5
254.757	-7.3
255.227	-10.4
255.696	-6.6
256.166	3.4
256.635	-2.9
257.105	-1.8
257.574	-4.3
258.043	-7.6
258.513	-10.1
258.982	-5.8
259.451	-10.5
259.92	-3.2
260.389	-7
260.859	2.1
261.328	0.3
261.797	-0.6
262.266	-8.9
262.735	3.2
263.204	-4.2
263.673	-5.5
264.142	-5.5
264.611	-12.6
265.08	-10.6
265.549	-8.5
266.018	0.8
266.487	-12
266.955	-6.8
267.424	-8
267.893	-1.7
268.362	-13.2
268.83	-10.9
269.299	2.6
269.768	-4.8
270.236	-4.9
270.705	-10.3
271.174	-10
271.642	-5.2
272.111	-5.4
272.579	-5.9
273.048	-3.5
273.516	-4.4
273.985	-1.5
274.453	-9.5
274.922	2.5
275.39	-5.3
275.858	-11
276.327	-6.8
276.795	1.9
277.263	-7.1
277.731	1.3
278.2	-1.9
278.668	-5.9
279.136	-2.3
279.604	-11.5
280.072	-3.4
280.54	-4.9
281.008	-4.4
281.477	-9.9
281.945	-6.3
282.413	3.3
282.881	-0.7
283.348	-7.5
283.816	-4
284.284	-6.7
284.752	4
285.22	-12
285.688	-4.1
286.156	-8.1
286.623	2.2
287.091	-6.2
287.559	2.1
288.026	-6.3
288.494	-3.6
288.962	-9
289.429	-8.1
289.897	0
290.364	-2.8
290.832	-1.5
291.3	-10.2
291.767	-1.9
292.234	-3.6
292.702	-8.8
293.169	-5.7
293.637	-2.7
294.104	-4.2
294.571	-12.5
295.039	-11.4
295.506	-11.2
295.973	-1.9
296.44	-8.8
296.908	-4
297.375	-5.7
297.842	-3.8
298.309	-7.4
298.776	-12.8
299.243	-5.5
299.71	-10.7
300.177	-3.5
300.644	-1
301.111	-4.7
301.578	-3.6
302.045	-8.7
302.512	-3.3
302.979	3.6
303.446	-0.6
303.913	-7.9
304.379	-7.8
304.846	4.5
305.313	-9.4
305.78	-8.9
306.246	-3.9
306.713	2.1
307.18	-5.7
307.646	-2
308.113	-1.2
308.579	-7.4
309.046	-3.5
309.512	-3.1
309.979	-12.9
310.445	-0.5
310.912	-10.2
311.378	-2
311.845	3.9
312.311	-1.6
312.777	-4.3
313.244	-4.5
313.71	4.3
314.176	-6.5
314.642	-2.7
315.109	-8.1
315.575	2.2
316.041	3.2
316.507	-3.4
316.973	-0.9
317.439	-3.5
317.905	2.4
318.371	-2
318.837	-3.3
319.303	-9.5
319.769	4.2
320.235	-9.2
320.701	-4.5
321.167	-4.1
321.633	-4.3
322.099	-3.4
322.564	-6.1
323.03	-6.3
323.496	-5.6
323.962	-5.8
324.427	-7.5
324.893	1.4
325.359	-8
325.824	-1.1
326.29	-5.8
326.755	-2.2
327.221	-3
327.686	-11
328.152	1.2
328.617	-7.1
329.083	1.7
329.548	2.3
330.014	1.9
330.479	-9.1
330.944	-5.2
331.41	-9.7
331.875	-2.3
332.34	-4
332.805	-6.6
333.271	1.2
333.736	-7.5
334.201	-6.2
334.666	-6.9
335.131	2.1
335.596	-5
336.061	-3.7
336.526	-11.6
336.991	-2.3
337.456	1.3
337.921	-2.8
338.386	-3.2
338.851	-3.5
339.316	-3.2
339.781	-2.7
340.246	-1
340.711	-5.6
341.175	-6.6
341.64	-14.2
342.105	-7.8
342.569	-1.1
343.034	-2.9
343.499	-0.3
343.963	-5
344.428	-1
344.893	-1.3
345.357	-10.2
345.822	-5.8
346.286	-9.9
346.751	-1.7
347.215	-3.2
347.679	-8.9
348.144	1
348.608	0.9
349.073	-5.3
349.537	-6
350.001	-8.7
350.465	0.4
350.93	-0.7
351.394	-0.2
351.858	-10.4
352.322	0.6
352.786	-8.8
353.25	0.6
353.715	2.9
354.179	-3.2
354.643	-6
355.107	0.5
355.571	-1.3
356.035	-5.4
356.498	-7.9
356.962	-9.4
357.426	3.2
357.89	-0.6
358.354	-4.6
358.818	5
359.281	-1.6
359.745	-6.5
360.209	-8.9
360.673	-10.1
361.136	-3.8
361.6	2.8
362.064	1.2
362.527	-2.8
362.991	-3.4
363.454	-4.7
363.918	-10.7
364.381	-11.1
364.845	-6.5
365.308	-2.1
365.772	-3
366.235	-0.2
366.698	-4.5
367.162	-2.4
367.625	-4
368.088	-10.1
368.552	-1.3
369.015	-6.8
369.478	-1.1
369.941	4
370.404	-8.2
370.867	-3.8
371.331	-2.5
371.794	-6.3
372.257	-9.2
372.72	3.1
373.183	-8.5
373.646	-4.6
374.109	-7.8
374.572	-2.4
375.035	-7.5
375.497	-2.6
375.96	-4.8
376.423	-6.8
376.886	-7.7
377.349	-5.4
377.811	-4.8
378.274	-1.3
378.737	-2.3
379.199	-5.1
379.662	-8.5
380.125	-2.4
380.587	-9.6
381.05	-11.3
381.512	-4.9
381.975	4.2
382.437	-4.3
382.9	-3.1
383.362	-1.6
383.825	-10.3
384.287	-3.9
384.75	-4.1
385.212	-0.1
385.674	-2.4
386.136	4.4
386.599	-12.5
387.061	-1.6
387.523	-4.5
387.985	-3.3
388.447	3
388.91	-3.6
389.372	0.1
389.834	-6.1
390.296	-6.1
390.758	-5
391.22	3.3
391.682	-0.4
392.144	-0.8
392.606	-3.2
393.068	-3.3
393.529	0.8
393.991	-10.6
394.453	-5.3
394.915	-4.1
395.377	-5.5
395.838	-4
396.3	-3.1
396.762	-3.2
397.224	-6.4
397.685	-1
398.147	-10.5
398.608	-5.3
399.07	-8.7
399.531	-0.4
399.993	-3.5
400.454	4
400.916	-6.2
401.377	-4.2
401.839	-4.8
402.3	-9.3
402.762	-6.3
403.223	-5
403.684	1.6
404.145	-3.3
404.607	-9.5
405.068	-1.8
405.529	-6
405.99	-7.4
406.451	-12
406.913	0.6
407.374	-2.9
407.835	-8
408.296	-3.3
408.757	-7.2
409.218	-6.8
409.679	-2.8
410.14	-0.9
410.601	-6.8
411.062	-4
411.522	-9.8
411.983	-0.9
412.444	-15.6
412.905	-3.1
413.366	-1.2
413.826	-3
414.287	-4.3
414.748	-3.3
415.208	-4.7
415.669	-5.3
416.13	1.9
416.59	-4.1
417.051	3.2
417.511	-4
417.972	-8.1
418.432	-7.1
418.893	0.3
419.353	0.6
419.814	-3.4
420.274	-0.4
420.734	-6.6
421.195	-4.5
421.655	-4.9
422.115	-3.2
422.576	-4.8
423.036	3.7
423.496	-1.4
423.956	-1.6
424.416	3.1
424.876	-2.6
425.336	-7.3
425.797	-3.1
426.257	-5.2
426.717	-2.8
427.177	5.1
427.637	-3.2
428.097	-4.1
428.556	-17.3
429.016	-8.5
429.476	-4.1
429.936	-1.6
430.396	-7.3
430.856	-6.8
431.315	1.9
431.775	-3.7
432.235	-0.3
432.694	-8.9
433.154	0.7
433.614	0.8
434.073	-7.9
434.533	-0.5
434.993	-8
435.452	-2.8
435.912	-5.3
436.371	-7.7
436.83	-4.4
437.29	-2.3
437.749	-1.5
438.209	-6.8
438.668	-5
439.127	-9.3
439.587	4.9
440.046	-9
440.505	-2.5
440.964	-5.9
441.424	-14.5
441.883	-11.4
442.342	4
442.801	-4.4
443.26	-5.3
443.719	-4.1
444.178	3
444.637	-13.2
445.096	-10.7
445.555	-6.5
446.014	-3.2
446.473	-2.4
446.932	-4.7
447.391	-6
447.849	-7.5
448.308	-11.8
448.767	-9
449.226	-0.5
449.685	0.6
450.143	1.1
450.602	-8.8
451.061	-4.8
451.519	-5.8
451.978	-2.9
452.436	-5.4
452.895	-8.3
453.353	-5.8
453.812	-0.5
454.27	1.5
454.729	-4.2
455.187	-4.8
455.646	-6.3
456.104	-4.4
456.562	-7.8
457.021	-6.3
457.479	-4.5
457.937	-9.3
458.395	-6.8
458.854	-10.4
459.312	-3.1
459.77	-13.1
460.228	-2.6
460.686	-8.2
461.144	3.2
461.602	-3.7
462.06	-3.8
462.518	1.3
462.976	-9.9
463.434	-0.3
463.892	-7.4
464.35	-9.5
464.808	-6.1
465.266	-7.8
465.724	2.2
466.181	-2.8
466.639	-8.2
467.097	2.4
467.555	-3.5
468.012	-0.8
468.47	-6.2
468.928	1.2
469.385	-2.4
469.843	-1.6
470.3	-2.4
470.758	-5.5
471.215	-7
471.673	-4
472.13	-4.5
472.588	-5.1
473.045	-4.3
473.503	1.7
473.96	-3.4
474.417	-3.9
474.875	-6.7
475.332	-0.3
475.789	-1
476.246	-5
476.704	2.2
477.161	-4.3
477.618	-13.4
478.075	1.3
478.532	1.6
478.989	-8.5
479.446	-5.2
479.903	2.9
480.36	-2.4
480.817	-5.3
481.274	-3.7
481.731	6.9
482.188	-10.4
482.645	-0.7
483.102	-4
483.558	-3.6
484.015	-2.2
484.472	-3.2
484.929	-3.1
485.385	-11.3
485.842	-2.3
486.299	-12.7
486.755	-5.4
487.212	-4
487.668	-3.4
488.125	-3.8
488.582	-3.8
489.038	-1.8
489.494	-10.7
489.951	-3.6
490.407	-3.4
490.864	-10
491.32	3.1
491.776	-4.3
492.233	-4.2
492.689	-12.2
493.145	-0.8
493.602	-6.6
494.058	1.6
494.514	-6.8
494.97	3
495.426	-10.8
495.882	-3.5
496.338	-0.6
496.794	1.8
497.251	-12.6
497.707	-3.9
498.163	-3.6
498.618	-2.1
499.074	-4.2
499.53	-1.7
499.986	-3.8
500.442	-8.4
500.898	-4.1
501.354	-8.7
501.809	-6.1
502.265	-11.7
502.721	-5.2
503.177	7
503.632	-3
504.088	-5.7
504.543	-1.3
504.999	-1.8
505.455	-5.7
505.91	-4.9
506.366	-3.1
506.821	-12
507.277	-5.4
507.732	-11.1
508.187	-5.3
508.643	-3.9
509.098	-13.8
509.553	0.2
510.009	-3.5
510.464	-8.5
510.919	1.3
511.375	-1.5
511.83	-6.5
512.285	-1
512.74	0.2
513.195	-2.4
513.65	-4.3
514.105	-4.8
514.56	-3
515.015	0.1
515.47	3.9
515.925	-4.8
516.38	-3.9
516.835	1.3
517.29	-1.6
517.745	-7.2
518.2	-4.7
518.655	-5.1
519.109	-7.1
519.564	-5.6
520.019	-11.2
520.474	-10.2
520.928	-1.8
521.383	-6
521.838	-6.4
522.292	-4.5
522.747	6.9
523.201	-0
523.656	-3
524.11	-0.6
524.565	-5
525.019	-13.8
525.474	-4.9
525.928	-2.5
526.382	-7.5
526.837	-0.1
527.291	-7.1
527.745	-5.3
528.2	-0.9
528.654	-4.9
529.108	-6.4
529.562	-9.7
530.016	-1.5
530.47	-4.1
530.925	-0.9
531.379	-3
531.833	-5.6
532.287	-6
532.741	-8
533.195	-9.5
533.649	-1.4
534.103	-1.9
534.556	-5.7
535.01	-6.7
535.464	-6.1
535.918	-8.7
536.372	-0.7
536.826	2.4
537.279	-6.8
537.733	-4.4
538.187	-4.4
538.64	-3.6
539.094	-7.6
539.548	-5.8
540.001	-8.4
540.455	-9.4
540.908	-5
541.362	-8.6
541.815	-4.6
542.269	-2.1
542.722	-9.2
543.175	-9.2
543.629	-10.1
544.082	-1.5
544.536	-11.1
544.989	-5.1
545.442	-1.6
545.895	-2.9
546.349	-12.2
546.802	-8.4
547.255	-5.9
547.708	-11.4
548.161	-5.7
548.614	0.4
549.067	0.3
549.52	-6.2
549.973	-1.3
550.426	-5.1
550.879	-9.8
551.332	-11.1
551.785	-0.1
552.238	-4.4
552.691	-3.6
553.144	-2.9
553.596	-4.5
554.049	-6.8
554.502	-4
554.955	1.2
555.407	-8.4
555.86	-5.6
556.313	-5
556.765	-3
557.218	0.6
557.67	0.6
558.123	-6.5
558.576	-3.9
559.028	-4
559.48	-9.1
559.933	2.4
560.385	-3.9
560.838	-2.1
561.29	-5.7
561.742	-0.8
562.195	-1.7
562.647	-8.3
563.099	-1.7
563.551	-0.2
564.004	2.4
564.456	-1.8
564.908	-1.5
565.36	-6.8
565.812	2.1
566.264	-4.9
566.716	1.9
567.168	-3.5
567.62	-1.7
568.072	-3.2
568.524	-6.3
568.976	-4.6
569.428	-4.9
569.88	-12.5
570.332	-5.1
570.784	-7
571.235	-11.4
571.687	-8.4
572.139	-3.3
572.59	-9.7
573.042	-3.1
573.494	2.1
573.945	5.5
574.397	-5.4
574.849	-5.1
575.3	-8.7
575.752	-12
576.203	0.9
576.655	-0.1
577.106	-0.1
577.557	-4.1
578.009	0.5
578.46	-3.6
578.912	-3.2
579.363	-10.1
579.814	-5.4
580.265	-10.6
580.717	-9.2
581.168	-4
581.619	-1.4
582.07	-4.2
582.521	-9.3
582.972	-5.6
583.423	-10
583.875	-6.5
584.326	-7.4
584.777	-2.4
585.227	-4.4
585.678	-6.7
586.129	-7.6
586.58	0.4
587.031	-6.6
587.482	2
587.933	-3.3
588.384	-2.9
588.834	0.5
589.285	-6.2
589.736	-4.6
590.186	-5.1
590.637	-1.4
591.088	-5.3
591.538	-0.8
591.989	1
592.439	1.6
592.89	-6.1
593.34	-4.1
593.791	-7.4
594.241	-8
594.692	-5.8
595.142	-0.4
595.593	-2.9
596.043	-8.6
596.493	-8.2
596.943	-7.9
597.394	-2.2
597.844	-13.8
598.294	-5.3
598.744	1.9
599.195	-2.7
599.645	0.3
600.095	-8.8
600.545	-4.5
600.995	-8.3
601.445	0.2
601.895	-11.2
602.345	0.5
602.795	-5.5
603.245	-9.1
603.695	-5.1
604.145	-7.1
604.594	-4.7
605.044	-9.1
605.494	-8.2
605.944	-14.6
606.393	-4.2
606.843	-1.7
607.293	-7.8
607.743	-6.9
608.192	-8.7
608.642	1.9
609.091	-4.3
609.541	-1.6
609.99	-4.7
610.44	1.9
610.889	-8
611.339	-6.4
611.788	-7.6
612.238	-4.6
612.687	-0.6
613.136	-1.2
613.586	-0.3
614.035	-11.7
614.484	-4
614.933	-8.1
615.383	-4.1
615.832	-0.8
616.281	-1.8
616.73	-0.1
617.179	-3.3
617.628	-1.1
618.077	-9.3
618.526	-4.8
618.975	-6.5
619.424	4.4
619.873	-9.4
620.322	-2.4
620.771	-8.9
621.22	-6.9
621.669	3.5
622.118	-5.4
622.567	-5.8
623.015	-4.4
623.464	-1.3
623.913	-7.9
624.361	-8.3
624.81	-5.9
625.259	-4.6
625.707	-4
626.156	-8.3
626.604	2.7
627.053	-9.7
627.501	-9.1
627.95	-5.9
628.398	-5.7
628.847	-9.7
629.295	-9.1
629.744	-3.3
630.192	-3.5
630.64	-2.8
631.089	-9.1
631.537	2.6
631.985	-3.8
632.433	3.7
632.881	-6.6
633.33	0.9
633.778	-9.2
634.226	-7.4
634.674	-10.1
635.122	-9.9
635.57	-2.4
636.018	-5.8
636.466	0.4
636.914	-6.2
637.362	-4.3
637.81	-2.6
638.258	2
638.705	-8
639.153	-5.5
639.601	-9.7
640.049	-13.8
640.497	-1
640.944	0.7
641.392	-4.8
641.84	-1.4
642.287	1.9
642.735	-11.3
643.182	-4.2
643.63	-2
644.078	-10
644.525	-5.8
644.973	-6.5
645.42	-3.8
645.867	-6.3
646.315	2.7
646.762	-8.1
647.21	-7.7
647.657	-11.2
648.104	0.9
648.551	-4.1
648.999	-9.7
649.446	-3.2
649.893	-8.6
650.34	-3.2
650.787	-7.5
651.234	2.3
651.682	-6.4
652.129	-5.1
652.576	-1.8
653.023	6.6
653.47	7.2
653.917	-7.2
654.363	-0.1
654.81	-3.8
655.257	-12
655.704	0
656.151	-5.5
656.598	-2.9
657.044	-9.6
657.491	-3.6
657.938	-8.1
658.385	-3.3
658.831	-3.8
659.278	3.5
659.724	-7.3
660.171	0.9
660.618	-4.1
661.064	-3.2
661.511	-1.7
661.957	-5.5
662.404	-10.6
662.85	3.6
663.296	-2.7
663.743	-2.7
664.189	-5.4
664.635	-3.8
665.082	-3
665.528	-2.1
665.974	-3.8
666.42	-8.7
666.867	-0.7
667.313	-6.9
667.759	1.3
668.205	3.7
668.651	2.2
669.097	-4.1
669.543	-12.8
669.989	-7.2
670.435	-2
670.881	-2.7
671.327	-2.9
671.773	2.8
672.219	-8.6
672.665	3.1
673.11	-12
673.556	-2.6
674.002	-1.9
674.448	-11.4
674.893	-3.5
675.339	-1.3
675.785	-2.3
676.23	2.7
676.676	-4.8
677.122	-7.5
677.567	-2.5
678.013	-3.9
678.458	-6.7
678.904	-4.1
679.349	-15.5
679.794	0.9
680.24	-5.2
680.685	-9.9
681.131	-5.1
681.576	-4
682.021	-3
682.466	0.4
682.912	-8.7
683.357	-15.3
683.802	-2
684.247	1
684.692	-2.9
685.137	-18.6
685.583	-1.5
686.028	-4.6
686.473	-1.7
686.918	-13.6
687.363	0.4
687.807	1.3
688.252	-3.5
688.697	1.1
689.142	-4
689.587	-0.4
690.032	-12.9
690.477	-4.3
690.921	-12.4
691.366	0.5
691.811	-11.6
692.255	-2.2
692.7	6.3
693.145	-5.1
693.589	1.6
694.034	-1.3
694.478	-2.9
694.923	1.7
695.367	1.1
695.812	-5.1
696.256	-4.2
696.701	-8
697.145	2.1
697.59	-1.5
698.034	-11.3
698.478	1.1
698.922	-4.6
699.367	-3.7
699.811	2.6
700.255	-0.2
700.699	-2.6
701.143	-6.3
701.588	-3.5
702.032	3.5
702.476	-1.4
702.92	-2.2
703.364	-4.1
703.808	-9.9
704.252	-8.5
704.696	-10.4
705.14	-4
705.584	-6.4
706.027	0.4
706.471	-2.5
706.915	-10.3
707.359	-4.7
707.803	-5.3
708.246	-4.4
708.69	1.6
709.134	6.9
709.577	1.6
710.021	3.9
710.465	4.3
710.908	-4.6
711.352	-10.2
711.795	-8.4
712.239	2.8
712.682	-10.3
713.126	-3.1
713.569	-3.1
714.012	4
714.456	-2.9
714.899	-7.3
715.342	-7.5
715.786	-6.9
716.229	-5.8
716.672	-2.1
717.115	-7.1
717.558	-1.6
718.002	-3.4
718.445	-6.5
718.888	-1.1
719.331	-3.3
719.774	-6.9
720.217	-1.7
720.66	-4.5
721.103	-2.7
721.546	-2.8
721.989	-3.7
722.432	-9.7
722.874	-5.9
723.317	-14.8
723.76	-6.1
724.203	4.4
724.645	2.7
725.088	-1.6
725.531	-5.1
725.974	-9.5
726.416	-7.4
726.859	-5.4
727.301	-10
727.744	-4.8
728.187	-3
728.629	-5.1
729.071	-6.9
729.514	-1.7
729.956	-10.3
730.399	-7.9
730.841	-2.7
731.283	-5.1
731.726	-5.1
732.168	-7
732.61	-5.7
733.053	-6.2
733.495	-12
733.937	-3.5
734.379	-5.1
734.821	-7.2
735.263	-8.3
735.705	-5.2
736.148	-5.9
736.59	-4.9
737.032	-7.4
737.474	-5.1
737.916	-8.1
738.357	-4.4
738.799	-5.5
739.241	-6.5
739.683	-8.9
740.125	-0.1
740.567	-11.4
741.008	6.3
741.45	0.5
741.892	-3.4
742.334	-0.2
742.775	-7.7
743.217	-7
743.658	-7.5
744.1	-0.4
744.542	-11.8
744.983	0.8
745.425	-4.6
745.866	3.7
746.307	0.9
746.749	-2.1
747.19	3.7
747.632	-3.5
748.073	-14.2
748.514	-5.6
748.956	-8.3
749.397	-6.9
749.838	-2
750.279	-7
750.72	-0.5
751.162	-1.8
751.603	-1.8
752.044	-6.8
752.485	-12.5
752.926	-1.1
753.367	-1.1
753.808	-1.5
754.249	-9.3
754.69	-4.8
755.131	-7.4
755.572	-11.7
756.013	-12.1
756.453	-6.8
756.894	-1.5
757.335	-6.3
757.776	-4.2
758.216	-6.7
758.657	2.2
759.098	-10.3
759.538	-5.1
759.979	-4.8
760.42	-7
760.86	-3.5
761.301	-3.7
761.741	-1.7
762.182	-3.1
762.622	-5.4
763.063	-12.3
763.503	-1.7
763.943	-7.7
764.384	-3.3
764.824	-6.1
765.264	-10.2
765.705	0.3
766.145	-13.1
766.585	-8
767.025	-5.7
767.465	-9.3
767.906	-4.4
768.346	0.1
768.786	-1.9
769.226	-6.7
769.666	1.3
770.106	-9.6
770.546	-3.6
770.986	-4.5
771.426	-7.8
771.866	-3.8
772.306	-4.9
772.745	-6.8
773.185	-7.3
773.625	-2.9
774.065	-8.6
774.505	-0
774.944	-8.5
775.384	-3.9
775.824	-5.3
776.263	-10.1
776.703	-13
777.142	-4.7
777.582	-3.1
778.021	-9
778.461	-0.8
778.9	-5.6
779.34	-2
779.779	-12.3
780.219	-12.1
780.658	-14.4
781.097	-8.1
781.537	-6.3
781.976	-6.4
782.415	-4.5
782.855	-10.9
783.294	-6.4
783.733	-6.7
784.172	-9
784.611	-11.7
785.05	-3.9
785.489	-5.5
785.928	-7.4
786.367	5
786.806	-9.7
787.245	-5.5
787.684	-10.1
788.123	0.9
788.562	-9.8
789.001	-2.7
789.44	-6.5
789.879	-6.8
790.317	-6.4
790.756	-5.7
791.195	-6.4
791.634	-8.8
792.072	2.9
792.511	-2
792.95	-5
793.388	-9
793.827	-0.7
794.265	0.7
794.704	-10.3
795.142	1.9
795.581	2.8
796.019	-2.3
796.458	-7.7
796.896	-11.4
797.334	-10.4
797.773	-2.3
798.211	0.9
798.649	2
799.087	-3.6
799.526	-9.1
799.964	-3.1
800.402	-2.8
800.84	-4.4
801.278	-7.7
801.716	-5.1
802.154	-5.6
802.592	-2.2
803.03	-0.7
803.468	-11.1
803.906	-7.8
804.344	-2.4
804.782	-1.4
805.22	-7.7
805.658	-13.4
806.096	2.3
806.533	-1.1
806.971	-7.2
807.409	-6.1
807.847	-7.6
808.284	-6.1
808.722	-10.2
809.16	-8.5
809.597	-1.4
810.035	-2
810.472	-4.1
810.91	-0.6
811.347	3.9
811.785	0.9
812.222	-5.1
812.66	-5.5
813.097	-6.1
813.535	-1.7
813.972	-5
814.409	-8.4
814.846	-5.4
815.284	-2.1
815.721	-4.7
816.158	-3.4
816.595	-2.6
817.032	-2.1
817.47	3.7
817.907	1.5
818.344	-8
818.781	-5.6
819.218	-12
819.655	-4.5
820.092	-8
820.529	-8
820.966	-7.2
821.403	-1
821.839	-2
822.276	-2.2
822.713	-7.9
823.15	-2.2
823.587	-7.4
824.023	-8.6
824.46	-6.7
824.897	-6.1
825.333	-7.8
825.77	3.7
826.206	-6.7
826.643	0.3
827.08	-3.4
827.516	-2.2
827.953	-12
828.389	4.1
828.825	-2.6
829.262	-11.4
829.698	-11.3
830.135	-5
830.571	-2
831.007	-5.5
831.443	-5.3
831.88	-7.6
832.316	-2
832.752	0.8
833.188	-4.4
833.624	-5.8
834.06	2
834.497	-2.4
834.933	-3.5
835.369	0.2
835.805	-13.3
836.241	-7.5
836.677	-8.7
837.112	-5.6
837.548	-17.9
837.984	-6.3
838.42	-14.1
838.856	-9.4
839.292	-0.4
839.727	-5.8
840.163	-3.1
840.599	1.6
841.034	-5.3
841.47	-4.3
841.906	1.6
842.341	-9.7
842.777	2
843.212	-9.6
843.648	3
844.083	-3.7
844.519	-4
844.954	-4.9
845.39	-15.9
845.825	-9.3
846.261	-2.7
846.696	-4.9
847.131	-7.2
847.566	-0.1
848.002	-4.9
848.437	-7
848.872	-4.2
849.307	-9.2
849.742	-5
850.177	-8.4
850.613	-1.9
851.048	-8.1
851.483	-9.4
851.918	-7.3
852.353	-8.3
852.788	-16.3
853.223	-7.6
853.657	0.3
854.092	0.3
854.527	-5.5
854.962	-1.1
855.397	-2.4
855.832	-0.4
856.266	-7.2
856.701	-0.7
857.136	-8.6
857.57	-3.3
858.005	-6.3
858.44	0.2
858.874	-6.1
859.309	0.5
859.743	-14.6
860.178	-8.3
860.612	-6.9
861.047	-0.3
861.481	-6.6
861.915	-5.7
862.35	-2.3
862.784	-4.7
863.218	2.5
863.653	2.7
864.087	-1.3
864.521	5.6
864.955	-2.8
865.39	-0
865.824	-8.4
866.258	-0.8
866.692	-6.2
867.126	-5.8
867.56	-6.2
867.994	-11.1
868.428	-9.6
868.862	-5.5
869.296	-1.5
869.73	1.6
870.164	-3.9
870.598	-9.7
871.031	-7.7
871.465	-8.6
871.899	-5.4
872.333	-5.4
872.766	-7
873.2	-6.7
873.634	0.5
874.067	-6.9
874.501	-8.3
874.935	-0.4
875.368	-4.6
875.802	-5.2
876.235	-5.6
876.669	-0.6
877.102	-6.1
877.535	-5
877.969	-3
878.402	-7.1
878.836	-9
879.269	-6.9
879.702	-1.3
880.135	-3.2
880.569	-10.2
881.002	-1.6
881.435	-0.4
881.868	-5.3
882.301	-5.5
882.734	-6.9
883.167	-2.6
883.601	-1.5
884.034	1.6
884.467	-8.2
884.899	-7.8
885.332	-2.8
885.765	-9.4
886.198	-7.5
886.631	-1.6
887.064	-0.3
887.497	1.9
887.929	0.8
888.362	-10.8
888.795	-6.9
889.228	-1.5
889.66	0.1
890.093	2.6
890.526	-3.2
890.958	-9
891.391	-5.1
891.823	3.1
892.256	-8.4
892.688	-11.2
893.121	-6.6
893.553	-2.8
893.985	2.6
894.418	2.8
894.85	-3.7
895.282	-3.2
895.715	-6
896.147	-2.3
896.579	-0.2
897.011	-5.6
897.444	-10.7
897.876	-12.1
898.308	-5.2
898.74	-4.7
899.172	-5.3
899.604	-0.3
900.036	-3.6
900.468	-8.9
900.9	0.5
901.332	-3.1
901.764	-13.7
902.196	-4.6
902.628	-1.6
903.06	-5.1
903.491	-6.5
903.923	-7.1
904.355	-6.9
904.787	-2.9
905.218	-11.2
905.65	-2.7
906.082	-8.9
906.513	-9.7
906.945	-0.9
907.376	-7.8
907.808	-4
908.239	-2.3
908.671	-8
909.102	-7.6
909.534	-7.3
909.965	-1.9
910.397	-2
910.828	4
911.259	-3.2
911.691	0.4
912.122	-4.1
912.553	-6.6
912.984	4.9
913.415	-1.3
913.847	-4
914.278	-12.1
914.709	-10.9
915.14	-1.7
915.571	-2
916.002	-12.9
916.433	-1.1
916.864	-1.6
917.295	-2.5
917.726	3.3
918.157	-5.2
918.587	5.6
919.018	-5.2
919.449	-3.3
919.88	-6
920.311	-3
920.741	-13.6
921.172	-0.7
921.603	-4.9
922.033	-11.5
922.464	5.5
922.895	-8.9
923.325	1.7
923.756	-7.4
924.186	-5.7
924.617	-4.3
925.047	-9.9
925.478	-8.2
925.908	-10.2
926.338	-8.2
926.769	-9.2
927.199	2.2
927.629	-8.5
928.06	-0.6
928.49	-4.3
928.92	-2.1
929.35	-5.2
929.78	1.5
930.21	-1.2
930.641	-7.8
931.071	-5.7
931.501	-10.4
931.931	-4.1
932.361	-1.7
932.791	-1.2
933.221	-6.7
933.651	-6.1
934.08	-7.6
934.51	2.1
934.94	-6.6
935.37	-2.3
935.8	-2.1
936.229	-3.5
936.659	1.2
937.089	-7.8
937.519	-4.3
937.948	0.3
938.378	-0.9
938.807	-0.3
939.237	-3.3
939.666	1.9
940.096	-12.3
940.525	-9.1
940.955	-4.9
941.384	-3.7
941.814	-11.7
942.243	-5.9
942.672	0.2
943.102	-12.2
943.531	-5.9
943.96	0.1
944.39	0.3
944.819	1.1
945.248	-1.6
945.677	-7.7
946.106	-2
946.535	1.9
946.964	-7.2
947.393	6.7
947.822	-7.2
948.251	-8.7
948.68	-2.5
949.109	-1.3
949.538	-0.3
949.967	-6.2
950.396	-6
950.825	-4.7
951.254	-6.7
951.682	-15.5
952.111	2.4
952.54	-0.6
952.969	-7.8
953.397	-12.6
953.826	-5.1
954.254	-10
954.683	-7
955.112	-8.3
955.54	-6.4
955.969	-3.2
956.397	-4.5
956.826	-4.6
957.254	-1.3
957.682	0.6
958.111	-1.8
958.539	-11.7
958.967	-0.1
959.396	-9.3
959.824	1.8
960.252	-1.4
960.68	-8.6
961.109	-8
961.537	-5.2
961.965	-5
962.393	-2.4
962.821	-8.7
963.249	-8.8
963.677	-3.3
964.105	-15.5
964.533	-9.7
964.961	-6.7
965.389	-4.1
965.817	-5.5
966.245	-4.1
966.672	-1.1
967.1	-3.8
967.528	-2.1
967.956	-6.4
968.383	1.6
968.811	-4.2
969.239	-9
969.666	-7.3
970.094	-3.9
970.522	1.1
970.949	-0.2
971.377	-3.4
971.804	-7.2
972.232	0.2
972.659	-2.1
973.087	-4.6
973.514	-10.9
973.941	-7.7
974.369	-5.4
974.796	-1.3
975.223	0.1
975.651	-11.2
976.078	-5.4
976.505	-6.6
976.932	-5.1
977.359	-7
977.786	-0.7
978.214	-13.1
978.641	-7.4
979.068	-10.2
979.495	-8
979.922	-8.4
980.349	-7.4
980.776	2.6
981.202	-1.7
981.629	0.9
982.056	3.2
982.483	-7.2
982.91	-0.9
983.337	-12.7
983.763	8.9
984.19	-6.9
984.617	-7.2
985.043	-10.2
985.47	-5.1
985.897	-7
986.323	-10.7
986.75	1.1
987.176	-4.6
987.603	-3.5
988.029	-10
988.456	-2.2
988.882	-1.2
989.308	-7.1
989.735	-9.1
990.161	-2.1
990.587	-4.3
991.014	0.4
991.44	-0.1
991.866	-5.2
992.292	-4.1
992.719	-5.6
993.145	-1.1
993.571	-13.2
993.997	-8.4
994.423	-12.2
994.849	-11.4
995.275	-2.4
995.701	-4.1
996.127	-2.3
996.553	-1
996.979	1.7
997.405	-4
997.83	-6.7
998.256	-5.4
998.682	-7.8
999.108	-4
999.534	-10.4
999.959	-0.5
1000.385	-5.7
1000.811	-2.6
1001.236	-12.5
1001.662	-4.8
1002.087	-10.5
1002.513	-1.2
1002.938	0
1003.364	-5.2
1003.789	0.6
1004.215	0.4
1004.64	-5.3
1005.066	-5.5
1005.491	3.2
1005.916	1.2
1006.342	-2.9
1006.767	-15.6
1007.192	1.4
1007.617	-12.6
1008.042	-12.5
1008.468	-5.2
1008.893	-6.3
1009.318	-9
1009.743	-6.3
1010.168	-3.4
1010.593	-6.3
1011.018	-10.5
1011.443	-7.7
1011.868	2.3
1012.293	-7.8
1012.718	-6.5
1013.143	-1.9
1013.567	-3.7
1013.992	-7.1
1014.417	-17
1014.842	-0.2
1015.267	-5
1015.691	-8.9
1016.116	0.3
1016.541	-4.9
1016.965	-0.8
1017.39	2.2
1017.814	2.9
1018.239	-5.7
1018.663	-7.7
1019.088	-9.3
1019.512	-3.6
1019.937	-2.4
1020.361	-3.8
1020.785	-7.8
1021.21	-0.9
1021.634	-3.6
1022.058	1.5
1022.483	1.1
1022.907	-5.3
1023.331	-2.7
1023.755	-5.1
1024.179	-2.1
1024.604	-5.6
1025.028	-5.3
1025.452	-3
1025.876	-6.1
1026.3	1.9
1026.724	-10
1027.148	-7.7
1027.572	-12.3
1027.996	-10.6
1028.42	-5.2
1028.843	-10.4
1029.267	-3.5
1029.691	-4.4
1030.115	-11.6
1030.539	-10.8
1030.962	-8.8
1031.386	-10.7
1031.81	-3.4
1032.233	3.7
1032.657	-2.1
1033.08	1.4
1033.504	-1.2
1033.927	-0.3
1034.351	2.9
1034.774	-6.2
1035.198	-2.5
1035.621	-10.8
1036.045	-6.3
1036.468	-4.1
1036.891	-10.3
1037.315	-16
1037.738	-9.4
1038.161	-3.7
1038.584	-7.4
1039.008	-6.5
1039.431	-10
1039.854	0.4
1040.277	-8.1
1040.7	-8.9
1041.123	-0.8
1041.546	-5.1
1041.969	-8
1042.392	-6.6
1042.815	-2.7
1043.238	-0.8
1043.661	2.2
1044.084	-7.2
1044.507	-1.9
1044.93	-9.8
1045.352	-8.9
1045.775	-9.4
1046.198	-5.8
1046.621	-0.6
1047.043	-0.3
1047.466	5.7
1047.889	-4.8
1048.311	-9.7
1048.734	-9
1049.156	-0.8
1049.579	1.2
1050.001	-4.9
1050.424	-2.8
1050.846	-0.3
1051.269	-8
1051.691	-3.2
1052.113	-6.9
1052.536	-5.6
1052.958	-1
1053.38	-5.9
1053.802	-13.9
1054.225	1.8
1054.647	-10.8
1055.069	-4.4
1055.491	2.4
1055.913	-10.9
1056.335	-3.9
1056.757	-5
1057.179	-9.1
1057.601	-4.1
1058.023	-5.3
1058.445	-6
1058.867	-3.7
1059.289	-5.4
1059.711	-4.8
1060.133	-3.9
1060.555	-3.5
1060.976	-7.3
1061.398	-8
1061.82	-4.8
1062.241	-6.2
1062.663	-2.4
1063.085	-0.5
1063.506	0.1
1063.928	-8.5
1064.35	-2.9
1064.771	-13
1065.193	-5.1
1065.614	-6.9
1066.035	-4
1066.457	-1.2
1066.878	1.9
1067.3	-5
1067.721	-4.1
1068.142	-1.8
1068.564	-6.9
1068.985	-2.6
1069.406	0.4
1069.827	-7.9
1070.248	2.1
1070.67	-0
1071.091	-6.1
1071.512	-5.4
1071.933	-5.2
1072.354	-12.4
1072.775	-7.7
1073.196	-12
1073.617	-2.3
1074.038	-3.1
1074.459	-2
1074.88	-5.2
1075.3	4.7
1075.721	-1.4
1076.142	-0.4
1076.563	-2.5
1076.983	-11.4
1077.404	-3.4
1077.825	-4.2
1078.246	-5.4
1078.666	-10.2
1079.087	-2.9
1079.507	-6.2
1079.928	-1.7
1080.348	-0.6
1080.769	-9
1081.189	-1.6
1081.61	-0.3
1082.03	0.5
1082.451	-8.4
1082.871	-6.6
1083.291	-7
1083.711	-12.2
1084.132	-3.4
1084.552	-7.5
1084.972	-0.8
1085.392	-13.9
1085.813	-11.2
1086.233	-10.5
1086.653	-2.9
1087.073	-0.5
1087.493	-12.2
1087.913	-4.2
1088.333	-4.4
1088.753	-4.3
1089.173	0.8
1089.593	-4
1090.013	1.5
1090.433	-0.4
1090.852	2.6
1091.272	3.2
1091.692	-4.1
1092.112	-4.9
1092.531	-8.5
1092.951	-13.3
1093.371	-2.9
1093.79	1.9
1094.21	-8.3
1094.63	-12.8
1095.049	-1.3
1095.469	-5.7
1095.888	-5.2
1096.308	4.1
1096.727	2.6
1097.146	-7.2
1097.566	-6.9
1097.985	-3.4
1098.405	-1.7
1098.824	-5.7
1099.243	-6.6
1099.662	-7.3
1100.082	-2.1
1100.501	-6.2
1100.92	-3.1
1101.339	-5.1
1101.758	3.2
