Data from 20171114-ORNL-Ar_H_NY_Subt18_08-03-47-867.txt Node
Date: Tue Nov 14 08:03:47 EST 2017
User: Ender
Spectrometer: HR+D1039
Trigger mode: 0
Integration Time (sec): 2.730000E-2
Scans to average: 10
Electric dark correction enabled: true
Nonlinearity correction enabled: false
Boxcar width: 0
XAxis mode: Wavelengths
Number of Pixels in Spectrum: 2048
>>>>>Begin Spectral Data<<<<<
187.836	-2.46
188.309	-2.46
188.782	-2.46
189.255	1.34
189.728	-4.46
190.201	4.84
190.674	1.54
191.147	-1.36
191.619	-8.76
192.092	1.94
192.565	1.74
193.038	3.84
193.511	-0.06
193.984	1.84
194.456	-2.56
194.929	2.44
195.402	-2.06
195.874	2.24
196.347	-1.36
196.82	-2.76
197.292	7.34
197.765	-5.86
198.237	-8.06
198.71	3.24
199.182	-7.96
199.655	2.04
200.127	2.94
200.6	-1.26
201.072	-4.16
201.544	-7.86
202.017	0.34
202.489	0.84
202.961	-3.86
203.433	-2.06
203.906	-1.36
204.378	-10.66
204.85	-2.06
205.322	-3.56
205.794	-5.46
206.266	-4.26
206.739	-8.06
207.211	-0.16
207.683	-3.86
208.155	-4.06
208.627	-3.76
209.099	-6.46
209.57	-8.86
210.042	0.54
210.514	2.14
210.986	-1.36
211.458	-5.26
211.93	-2.26
212.402	1.34
212.873	-6.26
213.345	-11.56
213.817	-11.06
214.288	-1.76
214.76	-6.66
215.232	-2.56
215.703	7.84
216.175	-3.76
216.646	-2.36
217.118	-4.46
217.589	-4.76
218.061	3.24
218.532	-2.96
219.004	-5.86
219.475	-5.46
219.946	-4.36
220.418	-4.16
220.889	6.84
221.36	1.24
221.832	-5.36
222.303	-4.06
222.774	0.04
223.245	-4.66
223.717	-4.36
224.188	-2.96
224.659	-11.36
225.13	-4.36
225.601	-2.56
226.072	0.14
226.543	0.64
227.014	0.94
227.485	-2.46
227.956	-7.06
228.427	-1.26
228.898	1.44
229.369	2.64
229.839	-4.66
230.31	-11.16
230.781	1.54
231.252	-3.56
231.722	-4.46
232.193	-3.16
232.664	-1.96
233.135	1.04
233.605	-1.66
234.076	-6.76
234.546	-0.86
235.017	3.14
235.487	0.84
235.958	1.44
236.428	-4.06
236.899	-2.36
237.369	1.24
237.84	-6.16
238.31	5.14
238.78	2.94
239.251	-2.36
239.721	-9.26
240.191	-5.16
240.662	-4.06
241.132	-0.56
241.602	-0.56
242.072	-0.46
242.542	4.44
243.013	-7.56
243.483	-3.86
243.953	3.04
244.423	-3.76
244.893	-1.96
245.363	-4.06
245.833	-1.16
246.303	-2.36
246.773	2.54
247.243	-1.06
247.712	-4.96
248.182	0.14
248.652	1.44
249.122	-3.86
249.592	2.84
250.061	5.24
250.531	11.24
251.001	-0.76
251.471	5.94
251.94	12.54
252.41	0.64
252.879	2.84
253.349	7.94
253.818	4.44
254.288	3.04
254.757	-2.96
255.227	-8.56
255.696	-2.56
256.166	-2.66
256.635	2.94
257.105	3.24
257.574	1.34
258.043	2.94
258.513	-3.86
258.982	8.44
259.451	-1.36
259.92	3.44
260.389	3.54
260.859	6.04
261.328	6.94
261.797	2.84
262.266	0.24
262.735	9.34
263.204	2.64
263.673	-0.76
264.142	0.24
264.611	-6.26
265.08	-3.36
265.549	-2.76
266.018	3.14
266.487	-4.66
266.955	-4.26
267.424	-3.86
267.893	1.74
268.362	3.84
268.83	0.44
269.299	9.54
269.768	-1.86
270.236	0.94
270.705	-2.36
271.174	4.64
271.642	4.34
272.111	3.24
272.579	3.84
273.048	5.64
273.516	2.94
273.985	3.94
274.453	3.04
274.922	3.44
275.39	0.94
275.858	2.14
276.327	1.14
276.795	7.84
277.263	6.44
277.731	8.04
278.2	10.84
278.668	2.24
279.136	4.54
279.604	-0.46
280.072	6.74
280.54	8.34
281.008	0.74
281.477	11.44
281.945	4.84
282.413	6.84
282.881	7.94
283.348	4.34
283.816	6.94
284.284	5.24
284.752	17.04
285.22	12.14
285.688	8.04
286.156	4.14
286.623	15.54
287.091	11.04
287.559	8.34
288.026	8.64
288.494	5.94
288.962	-5.96
289.429	1.24
289.897	11.34
290.364	9.54
290.832	16.54
291.3	7.04
291.767	9.84
292.234	14.34
292.702	10.04
293.169	10.74
293.637	20.74
294.104	11.94
294.571	6.04
295.039	8.64
295.506	6.24
295.973	12.34
296.44	7.54
296.908	8.94
297.375	14.64
297.842	15.54
298.309	4.24
298.776	6.74
299.243	16.84
299.71	11.64
300.177	21.44
300.644	17.34
301.111	8.44
301.578	17.84
302.045	16.14
302.512	19.64
302.979	18.54
303.446	20.34
303.913	11.14
304.379	6.84
304.846	20.14
305.313	20.44
305.78	16.34
306.246	18.44
306.713	15.44
307.18	20.24
307.646	14.54
308.113	19.84
308.579	22.04
309.046	27.04
309.512	19.54
309.979	15.84
310.445	24.54
310.912	20.44
311.378	27.04
311.845	22.54
312.311	26.74
312.777	20.84
313.244	23.84
313.71	35.64
314.176	16.24
314.642	21.44
315.109	14.54
315.575	21.94
316.041	25.94
316.507	26.34
316.973	23.44
317.439	22.54
317.905	27.44
318.371	26.74
318.837	23.14
319.303	24.54
319.769	20.74
320.235	25.64
320.701	25.84
321.167	27.04
321.633	24.14
322.099	27.14
322.564	32.64
323.03	26.54
323.496	30.34
323.962	31.94
324.427	28.54
324.893	36.64
325.359	34.54
325.824	33.24
326.29	32.84
326.755	36.84
327.221	34.44
327.686	30.64
328.152	43.54
328.617	33.64
329.083	38.84
329.548	43.94
330.014	40.94
330.479	34.94
330.944	33.54
331.41	32.04
331.875	31.54
332.34	33.54
332.805	36.94
333.271	42.24
333.736	37.74
334.201	42.84
334.666	44.24
335.131	47.34
335.596	48.64
336.061	43.04
336.526	31.54
336.991	43.74
337.456	50.44
337.921	43.04
338.386	41.74
338.851	43.44
339.316	43.34
339.781	44.04
340.246	46.64
340.711	48.44
341.175	47.34
341.64	44.84
342.105	51.44
342.569	48.44
343.034	53.34
343.499	45.34
343.963	46.94
344.428	54.74
344.893	55.94
345.357	60.64
345.822	61.14
346.286	59.84
346.751	61.24
347.215	59.74
347.679	62.54
348.144	84.54
348.608	75.14
349.073	62.14
349.537	67.34
350.001	72.34
350.465	73.94
350.93	68.14
351.394	78.24
351.858	69.24
352.322	71.34
352.786	77.44
353.25	81.64
353.715	91.24
354.179	86.64
354.643	100.64
355.107	104.84
355.571	91.04
356.035	93.84
356.498	100.64
356.962	100.54
357.426	104.54
357.89	96.24
358.354	84.14
358.818	83.24
359.281	80.44
359.745	77.04
360.209	72.84
360.673	71.04
361.136	79.54
361.6	78.24
362.064	83.84
362.527	83.44
362.991	90.94
363.454	76.04
363.918	73.14
364.381	81.04
364.845	86.94
365.308	84.64
365.772	81.34
366.235	90.24
366.698	82.04
367.162	84.44
367.625	84.34
368.088	81.04
368.552	89.34
369.015	90.44
369.478	95.54
369.941	96.14
370.404	89.34
370.867	97.24
371.331	101.04
371.794	109.24
372.257	93.24
372.72	105.84
373.183	94.84
373.646	100.44
374.109	99.74
374.572	100.44
375.035	97.44
375.497	100.54
375.96	106.64
376.423	104.94
376.886	105.14
377.349	106.34
377.811	100.54
378.274	102.54
378.737	105.24
379.199	116.84
379.662	112.94
380.125	114.84
380.587	109.24
381.05	110.74
381.512	119.14
381.975	123.64
382.437	123.44
382.9	119.94
383.362	125.14
383.825	134.74
384.287	125.24
384.75	123.84
385.212	128.84
385.674	133.34
386.136	132.24
386.599	124.44
387.061	128.24
387.523	123.84
387.985	126.34
388.447	137.24
388.91	127.44
389.372	131.34
389.834	133.74
390.296	127.14
390.758	133.34
391.22	141.74
391.682	141.44
392.144	146.94
392.606	147.54
393.068	146.14
393.529	157.94
393.991	142.84
394.453	134.44
394.915	140.04
395.377	137.34
395.838	130.54
396.3	147.14
396.762	143.94
397.224	139.74
397.685	130.44
398.147	135.24
398.608	139.44
399.07	136.54
399.531	144.14
399.993	152.44
400.454	154.94
400.916	156.64
401.377	154.14
401.839	160.64
402.3	154.44
402.762	176.94
403.223	182.64
403.684	174.54
404.145	173.64
404.607	168.94
405.068	178.94
405.529	172.24
405.99	185.14
406.451	177.84
406.913	178.84
407.374	175.04
407.835	177.14
408.296	178.04
408.757	186.14
409.218	191.24
409.679	190.34
410.14	182.74
410.601	181.54
411.062	191.44
411.522	193.34
411.983	180.14
412.444	180.54
412.905	194.94
413.366	193.24
413.826	212.44
414.287	240.24
414.748	288.74
415.208	277.54
415.669	231.74
416.13	224.74
416.59	215.84
417.051	235.04
417.511	242.54
417.972	256.64
418.432	267.44
418.893	319.64
419.353	280.74
419.814	217.64
420.274	192.14
420.734	192.84
421.195	205.94
421.655	197.24
422.115	208.34
422.576	204.64
423.036	209.34
423.496	226.74
423.956	235.94
424.416	248.44
424.876	279.24
425.336	276.44
425.797	270.04
426.257	270.14
426.717	251.14
427.177	243.54
427.637	235.14
428.097	247.64
428.556	254.44
429.016	280.54
429.476	263.94
429.936	282.54
430.396	281.64
430.856	295.24
431.315	315.04
431.775	345.44
432.235	385.84
432.694	359.44
433.154	363.24
433.614	376.64
434.073	334.04
434.533	293.44
434.993	282.34
435.452	283.24
435.912	282.94
436.371	282.94
436.83	275.24
437.29	266.04
437.749	253.24
438.209	246.94
438.668	270.64
439.127	279.84
439.587	265.24
440.046	243.74
440.505	259.54
440.964	276.34
441.424	298.34
441.883	297.34
442.342	257.14
442.801	236.24
443.26	233.54
443.719	240.14
444.178	234.24
444.637	226.74
445.096	233.04
445.555	233.04
446.014	233.54
446.473	233.84
446.932	246.44
447.391	234.34
447.849	238.04
448.308	231.14
448.767	230.34
449.226	242.94
449.685	248.34
450.143	263.24
450.602	248.84
451.061	241.24
451.519	243.74
451.978	239.34
452.436	241.24
452.895	241.34
453.353	256.34
453.812	250.34
454.27	242.74
454.729	249.34
455.187	240.54
455.646	242.04
456.104	251.04
456.562	263.14
457.021	270.34
457.479	261.04
457.937	274.04
458.395	266.74
458.854	253.24
459.312	259.64
459.77	269.24
460.228	255.84
460.686	255.14
461.144	263.04
461.602	254.24
462.06	253.34
462.518	258.74
462.976	254.64
463.434	264.54
463.892	270.94
464.35	274.84
464.808	286.04
465.266	267.94
465.724	277.34
466.181	283.94
466.639	277.04
467.097	290.44
467.555	304.44
468.012	303.24
468.47	313.64
468.928	329.64
469.385	338.74
469.843	351.34
470.3	343.04
470.758	360.44
471.215	375.14
471.673	389.34
472.13	392.34
472.588	412.24
473.045	376.84
473.503	378.24
473.96	396.04
474.417	405.84
474.875	426.24
475.332	457.24
475.789	450.34
476.246	460.04
476.704	475.64
477.161	487.94
477.618	502.74
478.075	541.34
478.532	582.24
478.989	646.24
479.446	720.44
479.903	716.54
480.36	746.64
480.817	794.74
481.274	870.84
481.731	963.94
482.188	1046.24
482.645	1160.04
483.102	1245.84
483.558	1358.24
484.015	1410.34
484.472	1389.04
484.929	1350.54
485.385	1311.44
485.842	1284.44
486.299	1223.34
486.755	1172.14
487.212	1009.34
487.668	876.74
488.125	816.94
488.582	742.74
489.038	715.84
489.494	682.94
489.951	665.64
490.407	646.14
490.864	617.04
491.32	619.84
491.776	611.84
492.233	618.34
492.689	583.14
493.145	587.04
493.602	583.54
494.058	590.84
494.514	584.44
494.97	593.44
495.426	605.44
495.882	591.24
496.338	583.54
496.794	586.24
497.251	583.74
497.707	584.24
498.163	596.74
498.618	594.24
499.074	590.14
499.53	616.84
499.986	611.14
500.442	599.54
500.898	585.74
501.354	582.44
501.809	585.14
502.265	589.34
502.721	598.54
503.177	610.94
503.632	606.34
504.088	611.24
504.543	629.14
504.999	639.64
505.455	611.14
505.91	609.24
506.366	607.84
506.821	594.64
507.277	607.64
507.732	609.44
508.187	600.54
508.643	608.14
509.098	614.44
509.553	632.74
510.009	644.04
510.464	636.74
510.919	642.04
511.375	651.74
511.83	653.34
512.285	669.74
512.74	692.04
513.195	708.94
513.65	705.44
514.105	701.44
514.56	709.14
515.015	727.34
515.47	742.24
515.925	729.84
516.38	724.54
516.835	735.84
517.29	713.64
517.745	729.24
518.2	706.34
518.655	697.94
519.109	684.64
519.564	673.34
520.019	672.84
520.474	664.54
520.928	660.64
521.383	663.74
521.838	660.64
522.292	651.94
522.747	654.94
523.201	645.14
523.656	648.94
524.11	642.54
524.565	636.44
525.019	635.04
525.474	636.64
525.928	632.84
526.382	635.94
526.837	641.34
527.291	639.24
527.745	633.84
528.2	636.54
528.654	624.44
529.108	617.54
529.562	614.54
530.016	622.84
530.47	621.94
530.925	618.64
531.379	629.84
531.833	638.94
532.287	621.64
532.741	625.04
533.195	618.24
533.649	630.64
534.103	631.14
534.556	624.54
535.01	620.24
535.464	616.54
535.918	631.64
536.372	636.64
536.826	631.24
537.279	623.14
537.733	627.24
538.187	624.44
538.64	629.34
539.094	640.74
539.548	641.34
540.001	644.84
540.455	633.04
540.908	641.04
541.362	648.14
541.815	656.64
542.269	666.94
542.722	664.04
543.175	669.14
543.629	670.84
544.082	695.14
544.536	678.64
544.989	686.54
545.442	693.04
545.895	690.24
546.349	700.14
546.802	696.74
547.255	702.84
547.708	706.34
548.161	703.34
548.614	700.14
549.067	713.34
549.52	699.34
549.973	700.84
550.426	695.44
550.879	692.74
551.332	692.74
551.785	696.54
552.238	702.04
552.691	704.54
553.144	719.64
553.596	717.24
554.049	739.04
554.502	746.94
554.955	777.84
555.407	775.74
555.86	760.44
556.313	752.24
556.765	739.94
557.218	740.44
557.67	738.64
558.123	733.14
558.576	739.14
559.028	741.24
559.48	756.34
559.933	740.34
560.385	718.54
560.838	692.44
561.29	672.14
561.742	660.34
562.195	644.34
562.647	643.44
563.099	656.04
563.551	650.34
564.004	662.44
564.456	652.64
564.908	633.84
565.36	618.44
565.812	606.44
566.264	616.24
566.716	606.44
567.168	586.24
567.62	587.14
568.072	577.74
568.524	574.44
568.976	582.04
569.428	559.54
569.88	558.64
570.332	573.64
570.784	560.74
571.235	569.44
571.687	572.24
572.139	582.14
572.59	585.14
573.042	589.34
573.494	588.24
573.945	578.54
574.397	557.54
574.849	564.04
575.3	569.54
575.752	555.44
576.203	547.84
576.655	557.44
577.106	542.44
577.557	534.94
578.009	542.84
578.46	545.54
578.912	539.94
579.363	534.44
579.814	539.04
580.265	536.44
580.717	527.94
581.168	540.74
581.619	552.84
582.07	549.04
582.521	544.84
582.972	535.04
583.423	544.14
583.875	541.94
584.326	548.84
584.777	555.54
585.227	577.74
585.678	600.04
586.129	620.54
586.58	644.44
587.031	661.24
587.482	700.14
587.933	730.24
588.384	695.74
588.834	651.74
589.285	614.24
589.736	626.54
590.186	622.04
590.637	616.84
591.088	590.54
591.538	589.04
591.989	588.64
592.439	570.24
592.89	567.14
593.34	558.84
593.791	545.54
594.241	542.74
594.692	547.64
595.142	552.44
595.593	546.04
596.043	556.74
596.493	553.54
596.943	548.44
597.394	560.84
597.844	551.44
598.294	576.94
598.744	594.64
599.195	614.54
599.645	642.74
600.095	667.84
600.545	713.94
600.995	745.14
601.445	791.64
601.895	839.04
602.345	882.34
602.795	866.54
603.245	826.14
603.695	791.74
604.145	753.14
604.594	705.14
605.044	667.94
605.494	619.54
605.944	574.94
606.393	575.94
606.843	560.54
607.293	562.44
607.743	557.54
608.192	559.54
608.642	576.74
609.091	580.44
609.541	584.84
609.99	578.34
610.44	574.84
610.889	553.54
611.339	533.94
611.788	515.44
612.238	530.04
612.687	535.94
613.136	529.44
613.586	538.44
614.035	530.14
614.484	533.14
614.933	539.74
615.383	536.04
615.832	531.94
616.281	524.34
616.73	509.74
617.179	499.04
617.628	498.54
618.077	484.34
618.526	466.84
618.975	462.54
619.424	474.54
619.873	456.84
620.322	470.94
620.771	452.44
621.22	452.94
621.669	445.24
622.118	442.54
622.567	433.04
623.015	414.94
623.464	426.14
623.913	418.74
624.361	412.44
624.81	411.04
625.259	417.44
625.707	418.44
626.156	416.24
626.604	432.44
627.053	426.14
627.501	424.84
627.95	430.54
628.398	430.74
628.847	424.94
629.295	423.54
629.744	431.04
630.192	423.24
630.64	420.74
631.089	406.44
631.537	391.64
631.985	393.54
632.433	392.74
632.881	376.44
633.33	402.04
633.778	383.04
634.226	380.64
634.674	393.84
635.122	396.14
635.57	402.64
636.018	418.24
636.466	419.24
636.914	410.84
637.362	420.24
637.81	429.44
638.258	427.04
638.705	437.04
639.153	447.84
639.601	447.34
640.049	473.24
640.497	501.04
640.944	516.94
641.392	473.14
641.84	456.94
642.287	436.04
642.735	413.14
643.182	417.34
643.63	415.44
644.078	408.34
644.525	423.24
644.973	425.34
645.42	438.74
645.867	448.44
646.315	458.54
646.762	468.24
647.21	499.24
647.657	508.14
648.104	536.34
648.551	545.94
648.999	591.24
649.446	632.04
649.893	690.14
650.34	775.24
650.787	915.74
651.234	1115.14
651.682	1440.34
652.129	1936.94
652.576	2720.34
653.023	3985.04
653.47	5526.84
653.917	6961.74
654.363	8145.14
654.81	9237.14
655.257	8774.44
655.704	5847.14
656.151	3449.74
656.598	2274.54
657.044	1621.44
657.491	1248.44
657.938	999.44
658.385	850.24
658.831	736.44
659.278	663.54
659.724	598.64
660.171	550.34
660.618	501.24
661.064	475.24
661.511	455.14
661.957	445.74
662.404	430.44
662.85	437.14
663.296	430.54
663.743	397.44
664.189	379.24
664.635	377.14
665.082	372.14
665.528	378.94
665.974	370.34
666.42	367.44
666.867	355.44
667.313	334.94
667.759	325.94
668.205	318.84
668.651	322.84
669.097	318.84
669.543	324.64
669.989	321.24
670.435	320.34
670.881	323.44
671.327	321.74
671.773	335.44
672.219	346.64
672.665	392.74
673.11	424.24
673.556	458.64
674.002	486.64
674.448	480.04
674.893	399.44
675.339	349.04
675.785	311.74
676.23	306.74
676.676	285.04
677.122	272.84
677.567	268.24
678.013	264.34
678.458	261.44
678.904	258.34
679.349	250.54
679.794	252.64
680.24	247.04
680.685	247.94
681.131	242.64
681.576	251.14
682.021	257.14
682.466	252.64
682.912	247.44
683.357	248.34
683.802	273.64
684.247	283.84
684.692	325.84
685.137	347.84
685.583	381.94
686.028	408.44
686.473	378.24
686.918	320.04
687.363	298.44
687.807	287.34
688.252	259.34
688.697	251.04
689.142	240.54
689.587	236.74
690.032	227.24
690.477	248.44
690.921	247.94
691.366	264.24
691.811	282.84
692.255	302.84
692.7	328.34
693.145	350.64
693.589	471.74
694.034	776.74
694.478	1081.64
694.923	1266.14
695.367	1706.44
695.812	891.54
696.256	368.24
696.701	269.64
697.145	244.34
697.59	230.74
698.034	218.74
698.478	231.04
698.922	226.64
699.367	227.14
699.811	236.24
700.255	247.14
700.699	264.34
701.143	301.14
701.588	331.24
702.032	364.84
702.476	360.94
702.92	351.94
703.364	353.24
703.808	442.34
704.252	701.24
704.696	1018.04
705.14	1233.54
705.584	1598.14
706.027	779.24
706.471	373.44
706.915	280.74
707.359	247.54
707.803	235.64
708.246	216.14
708.69	225.04
709.134	227.64
709.577	212.14
710.021	229.24
710.465	218.54
710.908	203.94
711.352	207.84
711.795	218.24
712.239	251.44
712.682	265.74
713.126	290.14
713.569	334.64
714.012	257.44
714.456	222.04
714.899	205.54
715.342	198.54
715.786	185.64
716.229	181.54
716.672	183.04
717.115	170.74
717.558	180.04
718.002	174.14
718.445	184.84
718.888	205.74
719.331	203.14
719.774	220.84
720.217	216.74
720.66	198.94
721.103	191.94
721.546	182.44
721.989	175.04
722.432	164.14
722.874	163.84
723.317	157.64
723.76	162.94
724.203	179.64
724.645	218.34
725.088	302.44
725.531	399.14
725.974	467.34
726.416	392.74
726.859	214.24
727.301	160.54
727.744	164.34
728.187	157.84
728.629	164.14
729.071	174.84
729.514	179.04
729.956	191.64
730.399	203.44
730.841	203.24
731.283	186.64
731.726	183.44
732.168	186.44
732.61	193.44
733.053	201.84
733.495	214.04
733.937	241.44
734.379	278.44
734.821	297.44
735.263	371.84
735.705	570.14
736.148	1056.24
736.59	1812.94
737.032	2284.44
737.474	1884.84
737.916	588.84
738.357	310.44
738.799	228.84
739.241	214.14
739.683	201.64
740.125	202.24
740.567	214.84
741.008	237.54
741.45	224.94
741.892	224.14
742.334	253.54
742.775	264.64
743.217	263.04
743.658	197.54
744.1	181.54
744.542	189.54
744.983	230.44
745.425	258.24
745.866	260.34
746.307	196.54
746.749	197.94
747.19	220.74
747.632	310.64
748.073	588.74
748.514	1257.74
748.956	2053.64
749.397	2566.24
749.838	2131.84
750.279	2206.14
750.72	1126.34
751.162	399.94
751.603	225.84
752.044	178.14
752.485	149.34
752.926	144.94
753.367	148.44
753.808	137.44
754.249	138.14
754.69	130.74
755.131	132.34
755.572	126.34
756.013	126.44
756.453	129.94
756.894	132.54
757.335	134.54
757.776	136.94
758.216	141.64
758.657	138.14
759.098	135.74
759.538	158.04
759.979	184.84
760.42	254.74
760.86	472.34
761.301	1230.64
761.741	3107.54
762.182	4960.84
762.622	3530.84
763.063	984.84
763.503	391.84
763.943	234.24
764.384	195.94
764.824	192.54
765.264	189.64
765.705	157.74
766.145	128.64
766.585	123.24
767.025	122.34
767.465	119.84
767.906	135.04
768.346	148.94
768.786	162.54
769.226	151.64
769.666	202.14
770.106	410.44
770.546	1049.24
770.986	1932.34
771.426	1782.54
771.866	584.54
772.306	229.54
772.745	142.44
773.185	118.34
773.625	110.54
774.065	99.04
774.505	110.94
774.944	143.84
775.384	259.34
775.824	471.84
776.263	464.24
776.703	214.14
777.142	115.74
777.582	96.14
778.021	87.24
778.461	89.04
778.9	93.94
779.34	90.14
779.779	77.14
780.219	71.84
780.658	71.14
781.097	69.24
781.537	82.84
781.976	77.84
782.415	77.44
782.855	67.34
783.294	74.04
783.733	75.04
784.172	72.64
784.611	66.74
785.05	77.54
785.489	74.24
785.928	83.34
786.367	82.64
786.806	84.34
787.245	91.14
787.684	86.54
788.123	106.24
788.562	95.54
789.001	89.14
789.44	82.74
789.879	81.84
790.317	82.04
790.756	93.54
791.195	91.74
791.634	100.44
792.072	135.24
792.511	238.24
792.95	676.04
793.388	1538.44
793.827	1444.14
794.265	487.74
794.704	203.94
795.142	131.44
795.581	109.04
796.019	100.34
796.458	96.74
796.896	90.04
797.334	81.94
797.773	114.74
798.211	151.64
798.649	295.54
799.087	707.24
799.526	1143.34
799.964	1441.24
800.402	1530.54
800.84	569.54
801.278	214.34
801.716	132.14
802.154	115.44
802.592	111.24
803.03	104.14
803.468	89.24
803.906	97.74
804.344	107.54
804.782	100.64
805.22	99.64
805.658	92.94
806.096	107.64
806.533	108.04
806.971	116.84
807.409	154.34
807.847	209.94
808.284	448.94
808.722	1297.34
809.16	2448.74
809.597	2236.14
810.035	4028.94
810.472	4614.64
810.91	1630.64
811.347	590.24
811.785	300.04
812.222	191.34
812.66	143.34
813.097	119.44
813.535	99.94
813.972	95.14
814.409	87.94
814.846	76.54
815.284	79.54
815.721	69.24
816.158	83.44
816.595	80.44
817.032	118.54
817.47	145.44
817.907	109.14
818.344	73.04
818.781	70.74
819.218	67.24
819.655	91.34
820.092	147.24
820.529	175.74
820.966	130.54
821.403	99.14
821.839	74.84
822.276	64.74
822.713	89.34
823.15	105.54
823.587	90.84
824.023	98.14
824.46	201.64
824.897	628.74
825.333	1019.04
825.77	441.54
826.206	165.94
826.643	100.84
827.08	73.44
827.516	57.94
827.953	50.54
828.389	58.64
828.825	46.24
829.262	39.84
829.698	43.34
830.135	43.04
830.571	46.04
831.007	45.54
831.443	44.74
831.88	39.54
832.316	42.84
832.752	45.84
833.188	39.64
833.624	40.34
834.06	48.04
834.497	48.94
834.933	50.14
835.369	53.64
835.805	49.54
836.241	53.84
836.677	57.24
837.112	53.54
837.548	69.44
837.984	90.44
838.42	143.14
838.856	341.84
839.292	1087.14
839.727	1770.74
840.163	821.44
840.599	652.04
841.034	1486.54
841.47	1661.54
841.906	596.14
842.341	234.84
842.777	152.34
843.212	152.14
843.648	147.54
844.083	85.04
844.519	57.74
844.954	55.24
845.39	40.54
845.825	39.44
846.261	41.24
846.696	37.54
847.131	36.54
847.566	45.24
848.002	41.94
848.437	33.14
848.872	43.74
849.307	38.54
849.742	57.84
850.177	125.94
850.613	391.64
851.048	660.34
851.483	284.34
851.918	107.64
852.353	61.34
852.788	46.24
853.223	36.04
853.657	37.04
854.092	33.24
854.527	32.14
854.962	29.94
855.397	31.84
855.832	41.74
856.266	29.74
856.701	38.04
857.136	29.14
857.57	25.14
858.005	37.94
858.44	47.04
858.874	32.54
859.309	33.94
859.743	30.94
860.178	31.54
860.612	25.94
861.047	35.84
861.481	54.14
861.915	55.94
862.35	38.74
862.784	23.74
863.218	32.14
863.653	19.64
864.087	36.64
864.521	38.24
864.955	43.94
865.39	108.94
865.824	120.24
866.258	84.04
866.692	136.74
867.126	156.24
867.56	87.94
867.994	41.54
868.428	32.84
868.862	38.24
869.296	45.24
869.73	45.84
870.164	46.64
870.598	34.44
871.031	28.94
871.465	28.54
871.899	25.34
872.333	13.54
872.766	20.04
873.2	18.14
873.634	23.74
874.067	17.64
874.501	18.64
874.935	27.04
875.368	28.24
875.802	19.24
876.235	21.64
876.669	19.34
877.102	12.34
877.535	17.24
877.969	12.54
878.402	20.84
878.836	12.44
879.269	14.84
879.702	15.94
880.135	14.84
880.569	15.54
881.002	19.74
881.435	14.64
881.868	9.44
882.301	13.84
882.734	11.94
883.167	17.54
883.601	12.74
884.034	20.04
884.467	9.74
884.899	16.34
885.332	7.74
885.765	14.24
886.198	11.04
886.631	16.54
887.064	14.34
887.497	13.64
887.929	21.04
888.362	9.34
888.795	6.64
889.228	6.74
889.66	15.04
890.093	8.34
890.526	12.24
890.958	10.44
891.391	14.04
891.823	20.24
892.256	10.54
892.688	8.54
893.121	15.14
893.553	7.94
893.985	20.64
894.418	13.34
894.85	7.64
895.282	7.34
895.715	17.44
896.147	14.74
896.579	16.94
897.011	6.94
897.444	13.94
897.876	7.44
898.308	6.34
898.74	6.84
899.172	6.34
899.604	20.64
900.036	13.54
900.468	12.04
900.9	12.34
901.332	13.14
901.764	10.04
902.196	14.24
902.628	12.14
903.06	12.54
903.491	24.34
903.923	18.74
904.355	17.44
904.787	17.64
905.218	21.14
905.65	8.64
906.082	4.14
906.513	12.84
906.945	7.04
907.376	9.04
907.808	16.34
908.239	12.14
908.671	14.94
909.102	19.84
909.534	18.54
909.965	31.64
910.397	66.64
910.828	228.34
911.259	370.54
911.691	162.94
912.122	76.04
912.553	40.44
912.984	22.04
913.415	21.84
913.847	20.04
914.278	14.44
914.709	4.34
915.14	15.04
915.571	14.34
916.002	10.54
916.433	12.84
916.864	14.14
917.295	11.54
917.726	13.74
918.157	7.54
918.587	21.94
919.018	16.94
919.449	16.84
919.88	17.14
920.311	18.24
920.741	36.54
921.172	116.94
921.603	114.84
922.033	48.34
922.464	32.04
922.895	16.04
923.325	15.54
923.756	11.14
924.186	9.74
924.617	10.94
925.047	14.64
925.478	22.84
925.908	18.24
926.338	9.04
926.769	11.44
927.199	12.94
927.629	8.54
928.06	14.14
928.49	14.14
928.92	12.34
929.35	7.04
929.78	4.54
930.21	4.54
930.641	9.04
931.071	13.54
931.501	1.74
931.931	7.24
932.361	8.84
932.791	0.54
933.221	1.64
933.651	0.74
934.08	11.94
934.51	21.74
934.94	7.14
935.37	7.64
935.8	6.54
936.229	8.84
936.659	9.84
937.089	6.04
937.519	14.94
937.948	18.54
938.378	12.84
938.807	-1.46
939.237	2.44
939.666	6.14
940.096	-3.16
940.525	-0.46
940.955	4.94
941.384	2.44
941.814	-11.76
942.243	-4.86
942.672	-0.06
943.102	-2.36
943.531	-2.26
943.96	4.74
944.39	1.24
944.819	0.94
945.248	-2.06
945.677	3.74
946.106	-1.76
946.535	-0.16
946.964	2.74
947.393	0.94
947.822	3.34
948.251	-5.56
948.68	0.24
949.109	5.24
949.538	5.24
949.967	-0.76
950.396	10.14
950.825	0.04
951.254	1.44
951.682	-6.16
952.111	1.84
952.54	-1.76
952.969	-2.16
953.397	-5.86
953.826	4.34
954.254	-3.46
954.683	6.24
955.112	-3.56
955.54	-0.76
955.969	1.14
956.397	6.84
956.826	2.44
957.254	-1.96
957.682	-0.06
958.111	2.24
958.539	-4.46
958.967	0.54
959.396	1.54
959.824	-2.06
960.252	-0.56
960.68	-10.06
961.109	-6.86
961.537	-2.46
961.965	-0.16
962.393	-1.06
962.821	-2.96
963.249	-3.56
963.677	1.44
964.105	-0.36
964.533	32.84
964.961	31.04
965.389	13.64
965.817	7.24
966.245	1.54
966.672	1.44
967.1	-4.36
967.528	-4.76
967.956	-0.26
968.383	-3.06
968.811	-1.86
969.239	-3.96
969.666	-4.56
970.094	0.54
970.522	3.04
970.949	0.94
971.377	-4.36
971.804	-7.26
972.232	3.44
972.659	-2.26
973.087	-2.06
973.514	-1.36
973.941	-4.66
974.369	6.74
974.796	2.54
975.223	-6.96
975.651	-3.96
976.078	5.34
976.505	1.44
976.932	8.54
977.359	14.84
977.786	16.74
978.214	-3.56
978.641	-2.06
979.068	-2.06
979.495	-2.16
979.922	-2.56
980.349	-2.76
980.776	-0.36
981.202	-0.16
981.629	4.24
982.056	6.14
982.483	-0.26
982.91	-2.96
983.337	-4.36
983.763	0.34
984.19	1.84
984.617	-5.26
985.043	-1.96
985.47	-6.06
985.897	-1.16
986.323	-3.86
986.75	3.64
987.176	1.84
987.603	-2.46
988.029	2.54
988.456	-1.16
988.882	0.14
989.308	-4.46
989.735	1.54
990.161	-1.36
990.587	-3.56
991.014	4.04
991.44	5.34
991.866	-3.86
992.292	-6.16
992.719	-4.06
993.145	-2.16
993.571	-6.56
993.997	-6.66
994.423	-5.76
994.849	-7.76
995.275	2.74
995.701	2.04
996.127	-0.36
996.553	10.34
996.979	-0.56
997.405	3.64
997.83	-5.96
998.256	-9.96
998.682	-6.26
999.108	-2.06
999.534	-1.86
999.959	1.14
1000.385	-7.36
1000.811	-2.16
1001.236	-6.66
1001.662	-10.26
1002.087	-7.16
1002.513	-1.96
1002.938	-2.86
1003.364	-8.16
1003.789	1.04
1004.215	3.14
1004.64	-1.06
1005.066	5.04
1005.491	-1.76
1005.916	-1.16
1006.342	-4.06
1006.767	-8.46
1007.192	4.74
1007.617	-14.36
1008.042	-3.26
1008.468	0.04
1008.893	-3.36
1009.318	1.24
1009.743	-0.66
1010.168	-1.06
1010.593	1.44
1011.018	-4.76
1011.443	-4.16
1011.868	4.04
1012.293	-3.06
1012.718	1.74
1013.143	5.74
1013.567	6.74
1013.992	-4.86
1014.417	-7.96
1014.842	-0.26
1015.267	0.94
1015.691	1.74
1016.116	5.64
1016.541	0.84
1016.965	5.54
1017.39	2.44
1017.814	-2.56
1018.239	-1.76
1018.663	-5.46
1019.088	-13.26
1019.512	2.14
1019.937	-0.06
1020.361	-1.46
1020.785	-8.76
1021.21	-4.16
1021.634	-0.06
1022.058	1.14
1022.483	7.64
1022.907	-3.06
1023.331	-1.36
1023.755	-4.16
1024.179	4.14
1024.604	-4.36
1025.028	-8.16
1025.452	-0.46
1025.876	-4.76
1026.3	-1.66
1026.724	-15.16
1027.148	0.14
1027.572	-14.66
1027.996	-3.66
1028.42	-2.26
1028.843	2.04
1029.267	-2.66
1029.691	-0.86
1030.115	-3.76
1030.539	-3.66
1030.962	-2.76
1031.386	-7.06
1031.81	-0.96
1032.233	4.14
1032.657	1.94
1033.08	-1.26
1033.504	-3.06
1033.927	-6.96
1034.351	0.14
1034.774	-3.16
1035.198	0.84
1035.621	-1.66
1036.045	-4.86
1036.468	1.04
1036.891	-13.56
1037.315	-12.36
1037.738	-15.96
1038.161	1.54
1038.584	-9.56
1039.008	-3.06
1039.431	-3.26
1039.854	-0.56
1040.277	-5.66
1040.7	-8.36
1041.123	-1.56
1041.546	-7.96
1041.969	-3.86
1042.392	-1.76
1042.815	-4.06
1043.238	0.64
1043.661	-1.86
1044.084	-6.76
1044.507	-7.86
1044.93	-1.86
1045.352	-6.46
1045.775	4.14
1046.198	-6.96
1046.621	-2.46
1047.043	6.94
1047.466	6.24
1047.889	-0.86
1048.311	-8.16
1048.734	-3.46
1049.156	-7.46
1049.579	-0.06
1050.001	-0.76
1050.424	0.04
1050.846	-4.96
1051.269	-3.26
1051.691	-7.36
1052.113	-7.76
1052.536	-2.26
1052.958	-2.76
1053.38	-2.96
1053.802	-11.46
1054.225	4.74
1054.647	-9.16
1055.069	-4.46
1055.491	4.64
1055.913	-7.96
1056.335	1.34
1056.757	-2.36
1057.179	-1.46
1057.601	0.94
1058.023	-3.36
1058.445	-1.46
1058.867	-4.36
1059.289	3.54
1059.711	-8.46
1060.133	1.44
1060.555	0.24
1060.976	-4.46
1061.398	-4.96
1061.82	-4.66
1062.241	-0.76
1062.663	-8.56
1063.085	-2.36
1063.506	-3.76
1063.928	-2.86
1064.35	-2.86
1064.771	-5.86
1065.193	-11.16
1065.614	-15.16
1066.035	-3.86
1066.457	0.54
1066.878	1.64
1067.3	-2.16
1067.721	-3.86
1068.142	-7.86
1068.564	-1.76
1068.985	-2.86
1069.406	-7.76
1069.827	-4.96
1070.248	-0.46
1070.67	-3.76
1071.091	-8.96
1071.512	1.04
1071.933	-6.56
1072.354	-8.96
1072.775	-3.26
1073.196	-10.16
1073.617	1.04
1074.038	-3.56
1074.459	1.14
1074.88	-9.06
1075.3	0.94
1075.721	-5.56
1076.142	2.64
1076.563	-1.46
1076.983	-11.66
1077.404	-7.46
1077.825	-8.06
1078.246	-4.26
1078.666	-11.66
1079.087	-3.76
1079.507	-3.76
1079.928	-0.46
1080.348	-6.56
1080.769	-4.96
1081.189	-0.96
1081.61	-1.36
1082.03	-5.66
1082.451	-7.96
1082.871	-3.66
1083.291	-5.96
1083.711	-6.06
1084.132	-7.56
1084.552	-1.66
1084.972	0.84
1085.392	-13.36
1085.813	-7.36
1086.233	-3.96
1086.653	-1.66
1087.073	0.34
1087.493	-3.06
1087.913	-8.86
1088.333	-4.36
1088.753	-2.46
1089.173	2.34
1089.593	-0.76
1090.013	1.24
1090.433	4.04
1090.852	-2.86
1091.272	1.84
1091.692	-2.36
1092.112	-1.76
1092.531	-10.66
1092.951	-9.26
1093.371	-4.96
1093.79	2.84
1094.21	-3.56
1094.63	0.04
1095.049	-2.16
1095.469	-0.36
1095.888	0.04
1096.308	0.54
1096.727	2.54
1097.146	0.84
1097.566	8.84
1097.985	-0.56
1098.405	2.54
1098.824	-2.26
1099.243	-5.56
1099.662	-8.26
1100.082	-3.96
1100.501	0.44
1100.92	-5.06
1101.339	1.24
1101.758	-5.36
