Data from 20171114-ORNL-Ar_H_NY_Subt18_08-03-40-497.txt Node
Date: Tue Nov 14 08:03:40 EST 2017
User: Ender
Spectrometer: HR+D1039
Trigger mode: 0
Integration Time (sec): 2.730000E-2
Scans to average: 10
Electric dark correction enabled: true
Nonlinearity correction enabled: false
Boxcar width: 0
XAxis mode: Wavelengths
Number of Pixels in Spectrum: 2048
>>>>>Begin Spectral Data<<<<<
187.836	-4.75
188.309	-4.75
188.782	-4.75
189.255	4.25
189.728	4.15
190.201	4.25
190.674	-1.05
191.147	5.05
191.619	-4.35
192.092	1.85
192.565	-0.05
193.038	-0.35
193.511	0.75
193.984	1.05
194.456	-7.65
194.929	-4.25
195.402	0.05
195.874	1.05
196.347	-2.45
196.82	-6.25
197.292	6.25
197.765	-3.95
198.237	-5.55
198.71	2.85
199.182	5.45
199.655	3.75
200.127	4.35
200.6	0.85
201.072	-1.45
201.544	-3.65
202.017	-3.45
202.489	8.05
202.961	-5.95
203.433	-1.75
203.906	-1.05
204.378	-5.25
204.85	1.95
205.322	-6.65
205.794	-1.85
206.266	-3.55
206.739	-8.35
207.211	6.55
207.683	-2.75
208.155	-0.25
208.627	-0.95
209.099	-2.95
209.57	-6.15
210.042	-0.05
210.514	0.45
210.986	5.15
211.458	-5.25
211.93	-1.95
212.402	0.95
212.873	-3.35
213.345	-14.65
213.817	-10.85
214.288	-3.15
214.76	-11.45
215.232	-0.35
215.703	-1.65
216.175	-3.35
216.646	-1.75
217.118	-7.65
217.589	-4.75
218.061	-3.75
218.532	0.85
219.004	-2.45
219.475	-0.05
219.946	-4.55
220.418	-6.05
220.889	9.05
221.36	3.75
221.832	-4.65
222.303	-6.25
222.774	4.95
223.245	-9.85
223.717	-6.15
224.188	-4.15
224.659	-4.55
225.13	-8.25
225.601	-7.25
226.072	3.15
226.543	0.35
227.014	-4.65
227.485	-3.55
227.956	-1.95
228.427	-0.35
228.898	1.45
229.369	3.75
229.839	2.35
230.31	-5.55
230.781	8.05
231.252	-4.45
231.722	-7.65
232.193	0.15
232.664	-3.65
233.135	-0.35
233.605	-5.45
234.076	0.35
234.546	1.65
235.017	1.35
235.487	1.05
235.958	2.65
236.428	-2.55
236.899	-2.55
237.369	0.95
237.84	-2.85
238.31	5.75
238.78	-4.15
239.251	-0.65
239.721	3.35
240.191	-1.05
240.662	-2.65
241.132	-1.25
241.602	-9.95
242.072	-0.85
242.542	7.65
243.013	-1.15
243.483	4.95
243.953	-4.15
244.423	-0.15
244.893	-2.25
245.363	2.85
245.833	-1.85
246.303	-3.75
246.773	12.15
247.243	-3.15
247.712	2.75
248.182	5.45
248.652	2.95
249.122	-12.95
249.592	1.95
250.061	7.65
250.531	5.75
251.001	-1.25
251.471	6.45
251.94	6.35
252.41	-0.45
252.879	-2.95
253.349	9.15
253.818	6.85
254.288	6.75
254.757	2.35
255.227	-5.95
255.696	-2.25
256.166	4.55
256.635	8.35
257.105	4.45
257.574	6.65
258.043	-0.55
258.513	0.05
258.982	-0.15
259.451	3.55
259.92	-0.65
260.389	3.65
260.859	4.35
261.328	4.65
261.797	9.95
262.266	-4.15
262.735	10.35
263.204	4.65
263.673	-0.35
264.142	-0.25
264.611	-2.55
265.08	-4.25
265.549	-2.45
266.018	2.95
266.487	-2.45
266.955	-7.25
267.424	0.65
267.893	10.95
268.362	-5.45
268.83	2.65
269.299	7.95
269.768	4.65
270.236	2.95
270.705	-2.55
271.174	6.15
271.642	0.65
272.111	5.95
272.579	4.05
273.048	4.15
273.516	5.25
273.985	4.15
274.453	7.55
274.922	15.75
275.39	4.05
275.858	-1.35
276.327	10.45
276.795	2.65
277.263	3.85
277.731	15.85
278.2	9.25
278.668	5.05
279.136	5.55
279.604	7.55
280.072	10.05
280.54	10.15
281.008	-1.05
281.477	15.35
281.945	10.55
282.413	12.95
282.881	10.15
283.348	5.15
283.816	10.25
284.284	10.45
284.752	12.85
285.22	4.45
285.688	11.05
286.156	2.75
286.623	14.85
287.091	5.85
287.559	8.65
288.026	7.55
288.494	12.75
288.962	2.95
289.429	8.65
289.897	15.45
290.364	13.35
290.832	15.85
291.3	10.55
291.767	12.35
292.234	15.25
292.702	15.05
293.169	10.25
293.637	11.25
294.104	21.15
294.571	8.25
295.039	8.45
295.506	0.05
295.973	15.25
296.44	10.55
296.908	18.45
297.375	5.95
297.842	10.95
298.309	10.45
298.776	4.95
299.243	16.25
299.71	8.15
300.177	14.45
300.644	16.95
301.111	19.05
301.578	15.35
302.045	11.75
302.512	18.05
302.979	15.95
303.446	21.05
303.913	13.95
304.379	15.85
304.846	16.05
305.313	20.05
305.78	19.65
306.246	11.95
306.713	24.45
307.18	19.35
307.646	21.25
308.113	22.15
308.579	20.75
309.046	21.75
309.512	19.45
309.979	19.65
310.445	25.35
310.912	26.35
311.378	27.55
311.845	30.15
312.311	26.25
312.777	28.55
313.244	22.05
313.71	32.45
314.176	23.65
314.642	21.25
315.109	28.15
315.575	28.85
316.041	37.25
316.507	22.85
316.973	36.55
317.439	28.15
317.905	32.75
318.371	28.75
318.837	34.45
319.303	30.35
319.769	30.55
320.235	28.35
320.701	32.95
321.167	33.05
321.633	26.45
322.099	33.25
322.564	36.15
323.03	31.45
323.496	31.95
323.962	34.05
324.427	35.05
324.893	44.95
325.359	36.25
325.824	31.85
326.29	39.15
326.755	36.85
327.221	40.75
327.686	34.45
328.152	37.95
328.617	35.35
329.083	37.95
329.548	44.15
330.014	38.65
330.479	42.65
330.944	37.15
331.41	37.85
331.875	48.05
332.34	42.95
332.805	47.85
333.271	40.55
333.736	39.05
334.201	45.55
334.666	47.95
335.131	45.65
335.596	54.35
336.061	49.85
336.526	38.75
336.991	52.85
337.456	51.55
337.921	46.25
338.386	46.15
338.851	49.95
339.316	49.15
339.781	56.25
340.246	53.25
340.711	45.95
341.175	50.65
341.64	46.15
342.105	51.65
342.569	59.65
343.034	61.75
343.499	55.35
343.963	56.85
344.428	61.95
344.893	57.85
345.357	62.65
345.822	60.45
346.286	64.95
346.751	72.85
347.215	70.85
347.679	71.35
348.144	90.15
348.608	82.15
349.073	70.15
349.537	75.45
350.001	73.55
350.465	92.35
350.93	80.25
351.394	88.05
351.858	73.25
352.322	86.45
352.786	85.25
353.25	98.15
353.715	99.75
354.179	95.65
354.643	108.35
355.107	114.65
355.571	101.85
356.035	91.35
356.498	109.05
356.962	111.05
357.426	119.75
357.89	107.85
358.354	95.55
358.818	88.95
359.281	84.35
359.745	87.85
360.209	86.45
360.673	85.25
361.136	84.35
361.6	88.65
362.064	92.85
362.527	95.25
362.991	95.95
363.454	91.05
363.918	81.15
364.381	94.05
364.845	92.65
365.308	94.35
365.772	95.95
366.235	92.65
366.698	93.65
367.162	91.05
367.625	93.15
368.088	105.15
368.552	98.85
369.015	99.55
369.478	102.85
369.941	110.45
370.404	100.95
370.867	112.45
371.331	107.75
371.794	116.45
372.257	108.85
372.72	117.75
373.183	115.75
373.646	105.45
374.109	110.05
374.572	110.55
375.035	109.45
375.497	120.55
375.96	120.55
376.423	118.15
376.886	126.75
377.349	131.35
377.811	121.45
378.274	125.25
378.737	116.75
379.199	126.65
379.662	120.05
380.125	128.05
380.587	120.85
381.05	130.95
381.512	136.05
381.975	143.35
382.437	138.05
382.9	135.15
383.362	143.15
383.825	146.75
384.287	146.15
384.75	134.55
385.212	141.95
385.674	154.35
386.136	149.95
386.599	144.35
387.061	144.95
387.523	145.85
387.985	146.75
388.447	156.45
388.91	155.15
389.372	154.15
389.834	151.05
390.296	150.65
390.758	155.05
391.22	158.25
391.682	163.55
392.144	169.45
392.606	167.35
393.068	168.45
393.529	181.25
393.991	167.55
394.453	162.05
394.915	162.05
395.377	152.75
395.838	161.55
396.3	164.55
396.762	163.85
397.224	162.95
397.685	168.95
398.147	164.05
398.608	163.05
399.07	157.55
399.531	167.65
399.993	178.45
400.454	184.95
400.916	173.95
401.377	176.75
401.839	186.05
402.3	174.85
402.762	204.75
403.223	215.35
403.684	207.05
404.145	199.35
404.607	193.15
405.068	192.95
405.529	198.75
405.99	213.45
406.451	206.85
406.913	208.55
407.374	201.45
407.835	198.75
408.296	200.05
408.757	210.55
409.218	220.45
409.679	207.45
410.14	206.15
410.601	210.05
411.062	214.35
411.522	212.15
411.983	208.65
412.444	214.05
412.905	218.75
413.366	231.35
413.826	236.55
414.287	267.25
414.748	314.15
415.208	294.75
415.669	260.15
416.13	254.45
416.59	250.35
417.051	255.35
417.511	273.55
417.972	301.45
418.432	313.15
418.893	364.65
419.353	320.15
419.814	245.85
420.274	226.15
420.734	223.95
421.195	236.15
421.655	230.85
422.115	231.05
422.576	236.95
423.036	237.95
423.496	254.45
423.956	261.85
424.416	280.95
424.876	321.75
425.336	313.25
425.797	316.15
426.257	311.45
426.717	287.15
427.177	276.95
427.637	272.05
428.097	272.25
428.556	279.55
429.016	311.85
429.476	312.45
429.936	316.45
430.396	309.95
430.856	329.05
431.315	357.25
431.775	380.35
432.235	428.55
432.694	394.05
433.154	402.35
433.614	422.35
434.073	375.85
434.533	327.05
434.993	310.85
435.452	314.75
435.912	331.65
436.371	322.65
436.83	309.65
437.29	298.15
437.749	280.15
438.209	280.95
438.668	300.75
439.127	317.75
439.587	285.15
440.046	274.55
440.505	289.65
440.964	304.55
441.424	329.65
441.883	334.35
442.342	304.35
442.801	257.65
443.26	270.05
443.719	271.05
444.178	262.85
444.637	253.35
445.096	272.05
445.555	266.15
446.014	269.45
446.473	270.05
446.932	276.45
447.391	282.15
447.849	275.65
448.308	266.75
448.767	261.55
449.226	287.25
449.685	280.15
450.143	289.05
450.602	283.35
451.061	270.15
451.519	280.65
451.978	274.95
452.436	277.85
452.895	281.65
453.353	286.65
453.812	278.45
454.27	274.45
454.729	273.75
455.187	273.35
455.646	280.65
456.104	282.45
456.562	298.85
457.021	297.85
457.479	292.95
457.937	302.75
458.395	295.95
458.854	289.05
459.312	289.55
459.77	307.15
460.228	285.55
460.686	288.35
461.144	297.75
461.602	292.15
462.06	294.05
462.518	298.85
462.976	297.35
463.434	296.05
463.892	300.45
464.35	319.25
464.808	322.45
465.266	307.65
465.724	310.45
466.181	320.45
466.639	315.55
467.097	329.45
467.555	346.95
468.012	341.95
468.47	349.85
468.928	365.85
469.385	375.95
469.843	385.15
470.3	383.35
470.758	404.35
471.215	414.45
471.673	433.45
472.13	437.35
472.588	446.65
473.045	427.65
473.503	425.15
473.96	445.95
474.417	452.95
474.875	474.85
475.332	505.45
475.789	502.05
476.246	501.15
476.704	525.75
477.161	539.75
477.618	562.85
478.075	600.75
478.532	639.05
478.989	703.95
479.446	784.85
479.903	776.45
480.36	812.95
480.817	857.45
481.274	935.75
481.731	1014.65
482.188	1102.45
482.645	1215.85
483.102	1314.15
483.558	1416.95
484.015	1468.15
484.472	1460.35
484.929	1406.85
485.385	1374.85
485.842	1343.55
486.299	1304.65
486.755	1251.85
487.212	1101.15
487.668	950.05
488.125	889.45
488.582	816.65
489.038	786.15
489.494	749.45
489.951	718.75
490.407	709.65
490.864	677.35
491.32	685.05
491.776	683.95
492.233	685.35
492.689	655.55
493.145	643.85
493.602	643.25
494.058	640.35
494.514	637.85
494.97	655.75
495.426	667.75
495.882	651.05
496.338	635.75
496.794	645.35
497.251	638.75
497.707	650.65
498.163	661.05
498.618	662.65
499.074	658.05
499.53	691.65
499.986	678.05
500.442	672.95
500.898	650.35
501.354	641.95
501.809	654.75
502.265	650.35
502.721	656.45
503.177	657.25
503.632	668.45
504.088	673.75
504.543	685.15
504.999	694.55
505.455	675.55
505.91	657.75
506.366	660.55
506.821	670.85
507.277	659.65
507.732	668.45
508.187	668.05
508.643	665.05
509.098	666.75
509.553	683.05
510.009	694.35
510.464	702.35
510.919	710.55
511.375	715.65
511.83	722.75
512.285	729.75
512.74	761.85
513.195	776.95
513.65	766.85
514.105	765.25
514.56	777.05
515.015	783.95
515.47	801.35
515.925	790.15
516.38	780.75
516.835	798.25
517.29	776.45
517.745	783.95
518.2	769.45
518.655	759.75
519.109	751.65
519.564	749.25
520.019	726.65
520.474	726.05
520.928	730.85
521.383	714.55
521.838	708.85
522.292	713.05
522.747	718.05
523.201	708.15
523.656	691.65
524.11	701.45
524.565	693.45
525.019	698.25
525.474	691.75
525.928	693.65
526.382	686.15
526.837	693.85
527.291	701.25
527.745	679.05
528.2	688.05
528.654	680.95
529.108	684.95
529.562	673.75
530.016	680.95
530.47	680.25
530.925	686.65
531.379	682.35
531.833	681.25
532.287	692.05
532.741	674.65
533.195	674.35
533.649	679.75
534.103	693.55
534.556	682.15
535.01	672.85
535.464	674.35
535.918	684.75
536.372	681.75
536.826	680.75
537.279	682.75
537.733	676.25
538.187	682.65
538.64	677.15
539.094	687.85
539.548	702.25
540.001	700.55
540.455	698.85
540.908	700.05
541.362	712.85
541.815	726.75
542.269	730.75
542.722	720.25
543.175	741.15
543.629	734.45
544.082	739.95
544.536	742.65
544.989	749.75
545.442	754.75
545.895	748.65
546.349	750.05
546.802	749.85
547.255	748.95
547.708	750.75
548.161	766.95
548.614	764.35
549.067	778.15
549.52	764.05
549.973	751.55
550.426	746.95
550.879	738.75
551.332	750.95
551.785	746.05
552.238	750.85
552.691	755.65
553.144	767.75
553.596	777.65
554.049	801.75
554.502	818.95
554.955	833.95
555.407	837.25
555.86	812.15
556.313	810.65
556.765	799.45
557.218	796.75
557.67	796.85
558.123	791.15
558.576	791.35
559.028	792.15
559.48	804.45
559.933	789.05
560.385	768.95
560.838	745.75
561.29	724.85
561.742	724.05
562.195	702.35
562.647	698.55
563.099	711.05
563.551	700.15
564.004	718.65
564.456	709.75
564.908	691.75
565.36	670.05
565.812	654.15
566.264	648.15
566.716	643.65
567.168	630.85
567.62	638.45
568.072	635.65
568.524	618.65
568.976	622.15
569.428	609.55
569.88	604.45
570.332	623.85
570.784	612.25
571.235	604.65
571.687	615.55
572.139	629.95
572.59	627.45
573.042	627.65
573.494	625.55
573.945	624.75
574.397	598.85
574.849	608.85
575.3	605.75
575.752	603.05
576.203	591.85
576.655	604.25
577.106	590.35
577.557	593.35
578.009	588.75
578.46	588.05
578.912	581.25
579.363	581.75
579.814	587.45
580.265	569.95
580.717	575.15
581.168	571.55
581.619	588.75
582.07	590.25
582.521	591.25
582.972	573.85
583.423	583.15
583.875	579.65
584.326	587.75
584.777	607.15
585.227	623.45
585.678	632.25
586.129	653.75
586.58	673.95
587.031	685.85
587.482	721.95
587.933	750.15
588.384	730.95
588.834	683.65
589.285	663.95
589.736	669.95
590.186	661.95
590.637	660.55
591.088	635.95
591.538	627.75
591.989	626.45
592.439	616.85
592.89	611.55
593.34	597.05
593.791	605.85
594.241	575.05
594.692	591.75
595.142	575.55
595.593	575.25
596.043	588.85
596.493	591.35
596.943	582.75
597.394	599.95
597.844	597.75
598.294	609.95
598.744	642.15
599.195	646.75
599.645	681.45
600.095	715.85
600.545	752.35
600.995	792.75
601.445	824.05
601.895	880.85
602.345	933.75
602.795	915.55
603.245	885.95
603.695	848.55
604.145	796.45
604.594	748.45
605.044	715.05
605.494	673.45
605.944	628.95
606.393	608.05
606.843	602.05
607.293	601.55
607.743	599.95
608.192	610.25
608.642	612.35
609.091	611.15
609.541	626.35
609.99	623.95
610.44	610.15
610.889	580.55
611.339	568.05
611.788	553.45
612.238	566.45
612.687	577.25
613.136	563.75
613.586	581.35
614.035	574.25
614.484	579.85
614.933	576.75
615.383	572.35
615.832	567.45
616.281	559.05
616.73	550.15
617.179	539.35
617.628	523.25
618.077	524.15
618.526	503.95
618.975	501.75
619.424	485.15
619.873	495.85
620.322	493.65
620.771	490.75
621.22	486.25
621.669	468.55
622.118	479.15
622.567	463.85
623.015	449.35
623.464	462.55
623.913	453.85
624.361	432.65
624.81	442.35
625.259	444.75
625.707	447.35
626.156	454.65
626.604	460.75
627.053	455.45
627.501	449.05
627.95	460.35
628.398	453.25
628.847	454.85
629.295	455.65
629.744	456.75
630.192	453.55
630.64	447.75
631.089	429.05
631.537	432.65
631.985	415.35
632.433	419.65
632.881	413.85
633.33	415.15
633.778	410.15
634.226	414.35
634.674	417.85
635.122	419.85
635.57	426.05
636.018	443.55
636.466	439.55
636.914	434.85
637.362	448.35
637.81	456.35
638.258	456.05
638.705	452.65
639.153	470.65
639.601	480.45
640.049	500.25
640.497	524.05
640.944	540.35
641.392	508.95
641.84	483.45
642.287	462.55
642.735	438.65
643.182	444.95
643.63	449.75
644.078	443.75
644.525	448.25
644.973	456.35
645.42	460.45
645.867	478.85
646.315	492.65
646.762	499.15
647.21	530.05
647.657	536.65
648.104	565.65
648.551	582.05
648.999	618.95
649.446	660.55
649.893	707.05
650.34	807.45
650.787	953.45
651.234	1152.15
651.682	1458.75
652.129	1951.05
652.576	2723.15
653.023	3920.15
653.47	5418.55
653.917	6828.05
654.363	7984.55
654.81	9019.05
655.257	8556.35
655.704	5785.75
656.151	3449.75
656.598	2283.65
657.044	1648.15
657.491	1271.45
657.938	1043.95
658.385	876.95
658.831	763.55
659.278	695.65
659.724	613.85
660.171	579.35
660.618	525.55
661.064	495.55
661.511	478.55
661.957	466.65
662.404	455.75
662.85	473.95
663.296	448.95
663.743	420.45
664.189	419.85
664.635	405.75
665.082	406.15
665.528	396.45
665.974	394.05
666.42	392.25
666.867	383.25
667.313	366.25
667.759	349.75
668.205	347.45
668.651	352.65
669.097	352.75
669.543	342.45
669.989	341.95
670.435	339.65
670.881	335.15
671.327	344.25
671.773	364.45
672.219	374.95
672.665	418.85
673.11	448.85
673.556	468.75
674.002	514.65
674.448	502.55
674.893	429.45
675.339	376.05
675.785	331.95
676.23	323.85
676.676	301.45
677.122	297.05
677.567	285.05
678.013	288.95
678.458	275.55
678.904	276.95
679.349	261.15
679.794	267.05
680.24	263.85
680.685	269.25
681.131	261.35
681.576	273.85
682.021	272.65
682.466	266.45
682.912	267.85
683.357	266.05
683.802	287.75
684.247	302.35
684.692	339.05
685.137	368.95
685.583	404.15
686.028	417.85
686.473	389.55
686.918	344.95
687.363	318.85
687.807	299.55
688.252	276.35
688.697	271.05
689.142	254.65
689.587	254.25
690.032	244.85
690.477	254.55
690.921	268.05
691.366	288.05
691.811	297.75
692.255	319.45
692.7	343.75
693.145	376.15
693.589	497.05
694.034	809.45
694.478	1131.95
694.923	1334.65
695.367	1776.75
695.812	942.85
696.256	380.55
696.701	278.25
697.145	263.55
697.59	245.55
698.034	245.25
698.478	248.05
698.922	243.55
699.367	242.15
699.811	255.25
700.255	269.85
700.699	283.55
701.143	311.15
701.588	353.75
702.032	389.05
702.476	384.55
702.92	379.75
703.364	379.65
703.808	468.45
704.252	735.25
704.696	1065.65
705.14	1289.85
705.584	1668.35
706.027	826.15
706.471	398.25
706.915	297.05
707.359	267.55
707.803	245.95
708.246	228.55
708.69	237.55
709.134	246.35
709.577	234.85
710.021	235.65
710.465	230.15
710.908	227.25
711.352	225.85
711.795	236.35
712.239	260.65
712.682	277.15
713.126	313.45
713.569	350.45
714.012	269.95
714.456	231.15
714.899	225.35
715.342	207.45
715.786	198.85
716.229	191.45
716.672	198.85
717.115	190.75
717.558	184.15
718.002	191.55
718.445	190.45
718.888	219.65
719.331	213.85
719.774	234.05
720.217	234.85
720.66	213.95
721.103	203.45
721.546	192.35
721.989	191.75
722.432	175.75
722.874	182.85
723.317	164.15
723.76	175.55
724.203	195.75
724.645	234.45
725.088	319.75
725.531	423.95
725.974	489.75
726.416	417.75
726.859	232.85
727.301	184.05
727.744	181.15
728.187	167.35
728.629	180.75
729.071	175.25
729.514	197.25
729.956	201.65
730.399	212.45
730.841	218.35
731.283	200.45
731.726	197.35
732.168	198.75
732.61	200.45
733.053	209.65
733.495	227.35
733.937	260.15
734.379	294.65
734.821	319.85
735.263	383.45
735.705	589.95
736.148	1105.85
736.59	1882.35
737.032	2368.25
737.474	1966.45
737.916	633.85
738.357	324.75
738.799	252.65
739.241	220.85
739.683	210.05
740.125	211.05
740.567	231.25
741.008	252.85
741.45	248.15
741.892	238.45
742.334	273.25
742.775	286.85
743.217	279.45
743.658	213.55
744.1	205.35
744.542	206.25
744.983	257.95
745.425	299.75
745.866	290.95
746.307	219.25
746.749	204.85
747.19	241.95
747.632	333.75
748.073	617.35
748.514	1313.85
748.956	2123.25
749.397	2659.85
749.838	2232.15
750.279	2316.95
750.72	1188.05
751.162	429.45
751.603	250.75
752.044	190.25
752.485	162.25
752.926	158.45
753.367	155.15
753.808	154.45
754.249	151.35
754.69	137.45
755.131	138.05
755.572	137.35
756.013	133.95
756.453	146.05
756.894	140.25
757.335	144.25
757.776	145.55
758.216	152.45
758.657	147.85
759.098	140.75
759.538	172.55
759.979	193.95
760.42	272.55
760.86	502.95
761.301	1281.75
761.741	3227.55
762.182	5136.65
762.622	3648.85
763.063	1044.75
763.503	423.95
763.943	253.55
764.384	210.65
764.824	194.15
765.264	190.05
765.705	158.05
766.145	138.95
766.585	131.85
767.025	129.25
767.465	120.75
767.906	139.85
768.346	154.65
768.786	152.75
769.226	157.75
769.666	214.75
770.106	428.35
770.546	1082.45
770.986	1997.55
771.426	1875.15
771.866	619.25
772.306	251.65
772.745	158.25
773.185	126.95
773.625	123.15
774.065	114.85
774.505	127.15
774.944	161.65
775.384	307.25
775.824	553.65
776.263	555.95
776.703	247.85
777.142	130.15
777.582	105.05
778.021	93.15
778.461	85.05
778.9	95.65
779.34	93.15
779.779	83.75
780.219	78.15
780.658	79.35
781.097	82.55
781.537	78.65
781.976	85.25
782.415	79.05
782.855	79.95
783.294	78.25
783.733	82.15
784.172	78.75
784.611	71.25
785.05	78.95
785.489	86.85
785.928	93.85
786.367	93.35
786.806	91.75
787.245	96.95
787.684	98.75
788.123	117.25
788.562	102.65
789.001	100.25
789.44	93.95
789.879	85.95
790.317	88.65
790.756	91.15
791.195	91.65
791.634	107.05
792.072	146.75
792.511	256.55
792.95	695.45
793.388	1593.45
793.827	1524.55
794.265	514.35
794.704	210.25
795.142	138.75
795.581	120.15
796.019	103.45
796.458	92.75
796.896	90.95
797.334	99.65
797.773	120.85
798.211	156.35
798.649	305.95
799.087	731.75
799.526	1184.85
799.964	1497.15
800.402	1597.65
800.84	592.95
801.278	230.85
801.716	140.95
802.154	112.25
802.592	116.65
803.03	102.75
803.468	99.35
803.906	109.25
804.344	117.15
804.782	106.45
805.22	102.65
805.658	101.85
806.096	117.65
806.533	122.15
806.971	123.45
807.409	159.35
807.847	231.85
808.284	468.25
808.722	1344.65
809.16	2536.05
809.597	2344.95
810.035	4129.85
810.472	4761.85
810.91	1710.85
811.347	636.85
811.785	317.85
812.222	210.25
812.66	154.55
813.097	128.35
813.535	108.75
813.972	102.65
814.409	93.65
814.846	81.85
815.284	90.05
815.721	76.65
816.158	82.95
816.595	87.15
817.032	133.35
817.47	157.05
817.907	126.65
818.344	91.25
818.781	80.25
819.218	78.05
819.655	100.15
820.092	170.15
820.529	203.15
820.966	145.95
821.403	110.15
821.839	86.85
822.276	83.45
822.713	95.75
823.15	118.55
823.587	95.35
824.023	108.45
824.46	199.45
824.897	645.25
825.333	1057.15
825.77	462.95
826.206	181.05
826.643	110.15
827.08	78.55
827.516	57.75
827.953	58.65
828.389	63.55
828.825	54.85
829.262	50.15
829.698	44.95
830.135	46.55
830.571	49.95
831.007	55.05
831.443	42.35
831.88	50.15
832.316	38.35
832.752	44.95
833.188	51.05
833.624	48.15
834.06	54.15
834.497	50.65
834.933	56.85
835.369	55.55
835.805	59.65
836.241	56.75
836.677	60.95
837.112	63.85
837.548	75.85
837.984	105.65
838.42	146.35
838.856	357.15
839.292	1118.25
839.727	1826.55
840.163	851.15
840.599	692.55
841.034	1531.25
841.47	1726.95
841.906	631.55
842.341	254.25
842.777	156.55
843.212	163.95
843.648	167.85
844.083	89.35
844.519	62.55
844.954	57.95
845.39	44.85
845.825	44.65
846.261	44.85
846.696	49.45
847.131	43.15
847.566	51.75
848.002	35.45
848.437	46.65
848.872	48.15
849.307	49.65
849.742	72.25
850.177	132.55
850.613	405.75
851.048	677.25
851.483	301.05
851.918	118.25
852.353	67.05
852.788	42.45
853.223	37.05
853.657	43.25
854.092	40.05
854.527	32.05
854.962	29.25
855.397	36.05
855.832	45.45
856.266	33.75
856.701	31.45
857.136	27.35
857.57	35.45
858.005	38.95
858.44	52.65
858.874	33.65
859.309	44.75
859.743	29.45
860.178	36.75
860.612	31.85
861.047	40.55
861.481	61.65
861.915	66.35
862.35	48.75
862.784	28.75
863.218	33.75
863.653	25.45
864.087	44.95
864.521	42.85
864.955	48.95
865.39	113.75
865.824	136.15
866.258	96.15
866.692	155.25
867.126	182.65
867.56	105.05
867.994	51.85
868.428	28.85
868.862	43.95
869.296	47.55
869.73	52.15
870.164	49.95
870.598	38.35
871.031	36.85
871.465	29.75
871.899	31.35
872.333	20.85
872.766	22.75
873.2	13.65
873.634	25.55
874.067	26.75
874.501	17.35
874.935	29.25
875.368	25.85
875.802	23.35
876.235	15.75
876.669	21.85
877.102	24.75
877.535	24.05
877.969	19.75
878.402	18.15
878.836	10.05
879.269	16.05
879.702	25.25
880.135	18.05
880.569	19.75
881.002	26.15
881.435	19.15
881.868	14.55
882.301	18.35
882.734	7.95
883.167	17.05
883.601	18.15
884.034	17.35
884.467	9.85
884.899	16.75
885.332	19.15
885.765	13.25
886.198	17.75
886.631	15.05
887.064	19.05
887.497	18.45
887.929	24.05
888.362	11.75
888.795	5.45
889.228	16.65
889.66	14.25
890.093	14.85
890.526	12.95
890.958	12.25
891.391	16.55
891.823	22.45
892.256	16.65
892.688	7.05
893.121	21.35
893.553	12.35
893.985	13.75
894.418	15.55
894.85	10.45
895.282	17.55
895.715	15.65
896.147	15.85
896.579	18.65
897.011	13.25
897.444	11.15
897.876	11.75
898.308	15.45
898.74	14.75
899.172	13.55
899.604	20.15
900.036	16.45
900.468	13.45
900.9	11.65
901.332	17.05
901.764	13.25
902.196	8.75
902.628	12.75
903.06	14.15
903.491	32.75
903.923	21.85
904.355	10.65
904.787	17.85
905.218	18.15
905.65	10.45
906.082	5.55
906.513	7.45
906.945	10.35
907.376	7.15
907.808	16.15
908.239	14.15
908.671	18.55
909.102	19.85
909.534	19.85
909.965	37.85
910.397	68.35
910.828	237.05
911.259	381.75
911.691	177.65
912.122	83.55
912.553	41.95
912.984	27.05
913.415	19.35
913.847	16.65
914.278	13.75
914.709	7.95
915.14	13.15
915.571	13.05
916.002	7.95
916.433	18.75
916.864	15.35
917.295	11.05
917.726	22.25
918.157	12.55
918.587	21.85
919.018	16.65
919.449	15.35
919.88	19.95
920.311	28.55
920.741	32.35
921.172	124.45
921.603	121.95
922.033	53.55
922.464	35.85
922.895	13.85
923.325	15.15
923.756	9.05
924.186	2.45
924.617	14.15
925.047	11.65
925.478	19.15
925.908	22.55
926.338	6.55
926.769	14.45
927.199	11.35
927.629	8.95
928.06	22.45
928.49	10.55
928.92	12.45
929.35	3.75
929.78	9.55
930.21	6.75
930.641	16.05
931.071	6.05
931.501	3.35
931.931	7.65
932.361	8.15
932.791	5.15
933.221	5.05
933.651	5.35
934.08	8.45
934.51	22.35
934.94	14.15
935.37	7.45
935.8	12.55
936.229	4.25
936.659	10.85
937.089	5.35
937.519	16.25
937.948	24.25
938.378	21.45
938.807	7.85
939.237	7.25
939.666	10.75
940.096	-4.55
940.525	7.25
940.955	0.15
941.384	8.95
941.814	-3.05
942.243	0.45
942.672	4.95
943.102	-6.45
943.531	2.85
943.96	6.25
944.39	4.45
944.819	3.45
945.248	5.95
945.677	6.15
946.106	11.15
946.535	4.65
946.964	-2.65
947.393	4.75
947.822	2.95
948.251	0.75
948.68	-2.15
949.109	7.15
949.538	3.75
949.967	2.35
950.396	3.75
950.825	-5.05
951.254	4.55
951.682	-4.35
952.111	1.25
952.54	5.75
952.969	-2.75
953.397	-9.05
953.826	6.95
954.254	-5.25
954.683	0.65
955.112	-4.25
955.54	-1.15
955.969	4.15
956.397	0.65
956.826	-3.15
957.254	-1.15
957.682	6.15
958.111	7.05
958.539	3.75
958.967	-2.95
959.396	4.85
959.824	2.65
960.252	6.55
960.68	-0.95
961.109	-1.55
961.537	2.65
961.965	-1.85
962.393	11.15
962.821	-4.15
963.249	4.25
963.677	8.05
964.105	2.75
964.533	40.25
964.961	32.25
965.389	13.35
965.817	7.85
966.245	2.85
966.672	-0.05
967.1	-6.25
967.528	-1.25
967.956	-0.15
968.383	7.65
968.811	0.85
969.239	0.25
969.666	-2.65
970.094	4.35
970.522	-3.95
970.949	-1.15
971.377	-2.75
971.804	-3.25
972.232	-0.75
972.659	-5.45
973.087	-1.35
973.514	-1.65
973.941	-2.35
974.369	4.85
974.796	8.25
975.223	-1.15
975.651	1.65
976.078	8.85
976.505	4.05
976.932	-3.05
977.359	8.95
977.786	12.65
978.214	0.15
978.641	0.45
979.068	-6.65
979.495	-0.25
979.922	-1.45
980.349	-4.95
980.776	6.55
981.202	-2.05
981.629	10.65
982.056	2.95
982.483	0.65
982.91	-0.25
983.337	-2.75
983.763	6.85
984.19	-2.35
984.617	-2.15
985.043	-2.95
985.47	0.25
985.897	-3.55
986.323	-5.75
986.75	2.35
987.176	5.75
987.603	0.45
988.029	-2.65
988.456	2.55
988.882	-0.75
989.308	0.95
989.735	-3.75
990.161	3.45
990.587	-5.35
991.014	0.25
991.44	11.75
991.866	-0.35
992.292	1.95
992.719	-5.65
993.145	3.75
993.571	-10.15
993.997	0.35
994.423	2.35
994.849	-2.75
995.275	0.75
995.701	2.65
996.127	-2.05
996.553	1.35
996.979	-4.15
997.405	5.15
997.83	2.45
998.256	-11.05
998.682	-5.05
999.108	-3.75
999.534	-0.05
999.959	-1.45
1000.385	-1.45
1000.811	2.45
1001.236	-7.55
1001.662	-5.35
1002.087	-9.25
1002.513	3.55
1002.938	-0.85
1003.364	0.05
1003.789	2.45
1004.215	4.45
1004.64	7.95
1005.066	0.75
1005.491	10.55
1005.916	-2.45
1006.342	-0.55
1006.767	-11.05
1007.192	9.15
1007.617	-7.75
1008.042	-5.15
1008.468	-7.65
1008.893	-1.35
1009.318	-0.75
1009.743	-4.05
1010.168	0.45
1010.593	1.55
1011.018	-5.05
1011.443	-0.25
1011.868	2.75
1012.293	-1.45
1012.718	-1.55
1013.143	0.25
1013.567	0.35
1013.992	5.75
1014.417	-7.95
1014.842	1.55
1015.267	-3.45
1015.691	-5.95
1016.116	0.15
1016.541	-0.05
1016.965	5.35
1017.39	3.45
1017.814	2.05
1018.239	3.85
1018.663	-2.25
1019.088	-7.75
1019.512	-4.95
1019.937	4.95
1020.361	-4.95
1020.785	-13.05
1021.21	3.65
1021.634	2.15
1022.058	5.55
1022.483	4.15
1022.907	-4.45
1023.331	1.05
1023.755	1.65
1024.179	-1.45
1024.604	-3.45
1025.028	-2.65
1025.452	-0.65
1025.876	2.25
1026.3	2.75
1026.724	-13.55
1027.148	-6.75
1027.572	-7.45
1027.996	-3.95
1028.42	-1.75
1028.843	-2.65
1029.267	-4.55
1029.691	-0.95
1030.115	-3.05
1030.539	-6.15
1030.962	-3.45
1031.386	-15.35
1031.81	1.15
1032.233	1.05
1032.657	1.45
1033.08	-1.55
1033.504	-4.15
1033.927	-3.55
1034.351	0.55
1034.774	-3.85
1035.198	-1.25
1035.621	-9.55
1036.045	-8.75
1036.468	-0.85
1036.891	-10.95
1037.315	-9.25
1037.738	-4.35
1038.161	-0.55
1038.584	-0.25
1039.008	-7.35
1039.431	-4.35
1039.854	1.25
1040.277	-5.35
1040.7	-12.65
1041.123	1.95
1041.546	-7.65
1041.969	-6.55
1042.392	-4.45
1042.815	-0.35
1043.238	6.05
1043.661	0.55
1044.084	-7.65
1044.507	-5.95
1044.93	-4.75
1045.352	0.25
1045.775	-1.55
1046.198	-3.55
1046.621	-1.65
1047.043	5.75
1047.466	8.55
1047.889	-2.75
1048.311	-4.25
1048.734	-0.55
1049.156	-3.15
1049.579	-6.85
1050.001	2.05
1050.424	3.25
1050.846	2.45
1051.269	-1.25
1051.691	-4.15
1052.113	-5.65
1052.536	-3.85
1052.958	-0.55
1053.38	-6.25
1053.802	-8.55
1054.225	-3.65
1054.647	-8.55
1055.069	-4.75
1055.491	10.55
1055.913	-6.75
1056.335	-0.55
1056.757	0.45
1057.179	-5.55
1057.601	-1.45
1058.023	-3.25
1058.445	-2.05
1058.867	-6.35
1059.289	-0.55
1059.711	-7.25
1060.133	-1.65
1060.555	-0.85
1060.976	-2.85
1061.398	-0.15
1061.82	-3.05
1062.241	-2.25
1062.663	-6.95
1063.085	-0.85
1063.506	5.65
1063.928	-7.75
1064.35	1.55
1064.771	-13.55
1065.193	-5.75
1065.614	-9.15
1066.035	5.15
1066.457	-0.85
1066.878	3.05
1067.3	-5.95
1067.721	0.05
1068.142	0.25
1068.564	-2.15
1068.985	-0.35
1069.406	-4.45
1069.827	-1.55
1070.248	0.05
1070.67	-9.65
1071.091	-8.45
1071.512	-4.05
1071.933	-1.55
1072.354	-12.15
1072.775	-1.65
1073.196	-10.75
1073.617	2.65
1074.038	-8.25
1074.459	2.45
1074.88	-3.55
1075.3	-0.35
1075.721	-5.95
1076.142	0.05
1076.563	-0.55
1076.983	-10.15
1077.404	3.05
1077.825	-5.85
1078.246	-1.25
1078.666	-12.05
1079.087	-3.95
1079.507	-5.75
1079.928	1.05
1080.348	5.55
1080.769	-0.15
1081.189	3.55
1081.61	-1.05
1082.03	-0.35
1082.451	-4.95
1082.871	-1.25
1083.291	-7.35
1083.711	-6.65
1084.132	-0.05
1084.552	-0.05
1084.972	2.95
1085.392	-8.15
1085.813	-5.25
1086.233	-3.05
1086.653	7.15
1087.073	-6.25
1087.493	-5.45
1087.913	0.15
1088.333	-6.65
1088.753	-0.05
1089.173	3.95
1089.593	-1.95
1090.013	3.35
1090.433	5.55
1090.852	3.45
1091.272	6.15
1091.692	-0.65
1092.112	-2.45
1092.531	-3.25
1092.951	-15.65
1093.371	0.45
1093.79	-0.25
1094.21	4.55
1094.63	-3.95
1095.049	-2.95
1095.469	-0.35
1095.888	-6.35
1096.308	2.35
1096.727	2.65
1097.146	-3.15
1097.566	-1.25
1097.985	1.35
1098.405	-4.25
1098.824	-4.45
1099.243	-4.45
1099.662	-7.55
1100.082	-5.15
1100.501	0.65
1100.92	0.75
1101.339	-0.75
1101.758	-6.35
