Data from 20171114-ORNL-Ar_H_NY_Subt18_08-04-04-519.txt Node
Date: Tue Nov 14 08:04:04 EST 2017
User: Ender
Spectrometer: HR+D1039
Trigger mode: 0
Integration Time (sec): 2.730000E-2
Scans to average: 10
Electric dark correction enabled: true
Nonlinearity correction enabled: false
Boxcar width: 0
XAxis mode: Wavelengths
Number of Pixels in Spectrum: 2048
>>>>>Begin Spectral Data<<<<<
187.836	-4.06
188.309	-4.06
188.782	-4.06
189.255	2.44
189.728	-4.36
190.201	7.24
190.674	0.74
191.147	0.44
191.619	-4.16
192.092	1.54
192.565	3.94
193.038	-6.36
193.511	4.94
193.984	1.04
194.456	1.94
194.929	0.74
195.402	-3.26
195.874	-2.86
196.347	-4.26
196.82	-3.06
197.292	2.14
197.765	1.34
198.237	-13.76
198.71	0.44
199.182	-5.06
199.655	0.44
200.127	-0.66
200.6	-5.76
201.072	-3.16
201.544	-4.86
202.017	-0.36
202.489	-1.86
202.961	-7.16
203.433	-4.16
203.906	-7.06
204.378	-3.86
204.85	-1.66
205.322	-11.66
205.794	1.44
206.266	-4.76
206.739	-10.66
207.211	3.34
207.683	-7.16
208.155	-4.66
208.627	-4.16
209.099	-6.96
209.57	-11.46
210.042	-5.06
210.514	-2.96
210.986	-0.16
211.458	-7.96
211.93	5.14
212.402	4.14
212.873	-6.76
213.345	-9.66
213.817	-10.86
214.288	-2.06
214.76	-9.96
215.232	-4.46
215.703	-1.56
216.175	-5.96
216.646	-3.86
217.118	-8.36
217.589	-3.16
218.061	-1.76
218.532	-3.66
219.004	-3.16
219.475	-4.96
219.946	-0.06
220.418	-8.06
220.889	0.24
221.36	0.04
221.832	-4.46
222.303	-0.66
222.774	-0.26
223.245	-10.86
223.717	-6.16
224.188	-3.96
224.659	-8.26
225.13	-3.46
225.601	1.84
226.072	2.54
226.543	-3.26
227.014	-0.76
227.485	-7.66
227.956	-6.76
228.427	-3.36
228.898	0.34
229.369	6.24
229.839	-4.86
230.31	-1.46
230.781	-0.16
231.252	-1.36
231.722	-8.16
232.193	-3.76
232.664	-1.06
233.135	-1.36
233.605	-2.46
234.076	-3.76
234.546	1.24
235.017	-5.16
235.487	-3.66
235.958	-1.86
236.428	-1.46
236.899	0.54
237.369	-2.46
237.84	-2.56
238.31	7.94
238.78	3.74
239.251	-3.96
239.721	0.94
240.191	-0.06
240.662	-8.36
241.132	4.14
241.602	-3.86
242.072	1.14
242.542	3.34
243.013	-0.16
243.483	4.54
243.953	5.44
244.423	1.04
244.893	-1.86
245.363	1.04
245.833	0.04
246.303	-4.36
246.773	-0.16
247.243	1.54
247.712	3.54
248.182	7.54
248.652	3.94
249.122	-5.16
249.592	16.94
250.061	12.84
250.531	20.84
251.001	8.34
251.471	8.84
251.94	14.74
252.41	1.64
252.879	-0.16
253.349	12.04
253.818	8.04
254.288	-4.16
254.757	1.34
255.227	-2.26
255.696	2.94
256.166	5.24
256.635	5.94
257.105	6.04
257.574	6.04
258.043	4.34
258.513	-0.46
258.982	11.34
259.451	1.04
259.92	10.54
260.389	-1.86
260.859	11.84
261.328	7.84
261.797	11.24
262.266	2.54
262.735	6.54
263.204	-0.76
263.673	-6.26
264.142	9.54
264.611	-5.06
265.08	-0.76
265.549	-4.86
266.018	2.24
266.487	-0.46
266.955	-3.76
267.424	-7.86
267.893	1.94
268.362	3.04
268.83	-2.66
269.299	12.64
269.768	3.24
270.236	5.34
270.705	-0.06
271.174	0.04
271.642	7.04
272.111	0.44
272.579	4.14
273.048	12.94
273.516	13.64
273.985	14.04
274.453	10.74
274.922	14.64
275.39	2.64
275.858	1.64
276.327	8.04
276.795	10.64
277.263	-1.66
277.731	19.54
278.2	21.94
278.668	33.84
279.136	32.14
279.604	7.34
280.072	10.34
280.54	1.34
281.008	8.34
281.477	5.84
281.945	10.34
282.413	9.64
282.881	17.34
283.348	2.24
283.816	9.14
284.284	8.14
284.752	9.64
285.22	4.64
285.688	5.34
286.156	13.24
286.623	28.34
287.091	31.84
287.559	13.84
288.026	11.84
288.494	10.14
288.962	0.74
289.429	0.04
289.897	13.24
290.364	10.64
290.832	11.44
291.3	10.24
291.767	16.44
292.234	12.24
292.702	7.74
293.169	11.64
293.637	15.54
294.104	17.74
294.571	-2.26
295.039	3.54
295.506	6.64
295.973	10.04
296.44	9.74
296.908	13.24
297.375	15.34
297.842	12.54
298.309	10.14
298.776	14.14
299.243	14.54
299.71	11.54
300.177	16.44
300.644	12.14
301.111	4.54
301.578	17.64
302.045	14.74
302.512	14.04
302.979	18.74
303.446	15.94
303.913	5.64
304.379	9.44
304.846	17.64
305.313	16.24
305.78	15.34
306.246	18.84
306.713	17.14
307.18	21.04
307.646	17.14
308.113	20.04
308.579	12.04
309.046	13.04
309.512	17.84
309.979	15.64
310.445	22.84
310.912	25.64
311.378	22.14
311.845	18.64
312.311	22.34
312.777	22.34
313.244	18.34
313.71	24.64
314.176	20.64
314.642	21.94
315.109	17.14
315.575	23.34
316.041	26.74
316.507	18.74
316.973	25.74
317.439	30.24
317.905	24.34
318.371	24.94
318.837	23.74
319.303	27.54
319.769	24.84
320.235	20.54
320.701	28.94
321.167	25.24
321.633	25.94
322.099	28.04
322.564	37.74
323.03	26.84
323.496	22.54
323.962	34.84
324.427	25.74
324.893	34.84
325.359	24.94
325.824	28.24
326.29	29.34
326.755	32.24
327.221	32.44
327.686	35.24
328.152	40.24
328.617	30.74
329.083	35.24
329.548	37.64
330.014	32.44
330.479	30.14
330.944	32.54
331.41	36.74
331.875	41.44
332.34	38.44
332.805	32.64
333.271	39.14
333.736	31.14
334.201	38.94
334.666	37.34
335.131	38.54
335.596	42.94
336.061	42.24
336.526	29.94
336.991	36.24
337.456	47.74
337.921	39.54
338.386	31.64
338.851	34.54
339.316	38.34
339.781	32.84
340.246	44.64
340.711	36.74
341.175	38.94
341.64	31.14
342.105	41.44
342.569	42.64
343.034	48.84
343.499	42.74
343.963	31.74
344.428	51.44
344.893	53.14
345.357	46.64
345.822	45.44
346.286	53.54
346.751	50.94
347.215	45.84
347.679	57.84
348.144	69.14
348.608	68.34
349.073	52.24
349.537	51.64
350.001	58.24
350.465	67.94
350.93	57.94
351.394	56.84
351.858	54.34
352.322	70.24
352.786	66.44
353.25	74.04
353.715	83.14
354.179	75.84
354.643	92.84
355.107	94.34
355.571	76.54
356.035	80.54
356.498	83.04
356.962	90.14
357.426	100.34
357.89	86.64
358.354	70.84
358.818	67.74
359.281	67.94
359.745	64.04
360.209	65.24
360.673	62.94
361.136	66.14
361.6	67.74
362.064	75.54
362.527	75.54
362.991	80.54
363.454	68.64
363.918	61.54
364.381	61.74
364.845	65.14
365.308	72.04
365.772	74.14
366.235	69.14
366.698	75.14
367.162	69.64
367.625	70.84
368.088	76.54
368.552	76.24
369.015	75.54
369.478	84.64
369.941	83.04
370.404	72.24
370.867	88.34
371.331	91.24
371.794	92.54
372.257	89.74
372.72	96.04
373.183	93.54
373.646	92.04
374.109	81.24
374.572	86.84
375.035	87.14
375.497	90.04
375.96	84.94
376.423	79.24
376.886	90.54
377.349	91.44
377.811	87.14
378.274	92.64
378.737	93.54
379.199	98.74
379.662	90.44
380.125	101.24
380.587	96.74
381.05	101.74
381.512	103.84
381.975	118.64
382.437	109.04
382.9	103.74
383.362	108.24
383.825	118.94
384.287	120.54
384.75	115.84
385.212	117.44
385.674	114.64
386.136	119.74
386.599	109.74
387.061	108.24
387.523	110.54
387.985	113.74
388.447	118.74
388.91	120.74
389.372	132.44
389.834	124.44
390.296	127.54
390.758	126.24
391.22	143.34
391.682	165.04
392.144	232.04
392.606	182.14
393.068	143.44
393.529	148.04
393.991	126.54
394.453	129.44
394.915	129.44
395.377	153.44
395.838	172.34
396.3	134.74
396.762	123.04
397.224	121.24
397.685	110.04
398.147	112.84
398.608	109.74
399.07	107.34
399.531	119.54
399.993	119.24
400.454	133.94
400.916	126.14
401.377	125.54
401.839	135.84
402.3	119.64
402.762	146.04
403.223	156.64
403.684	150.64
404.145	143.74
404.607	139.74
405.068	145.24
405.529	149.44
405.99	158.64
406.451	148.44
406.913	155.84
407.374	142.14
407.835	144.94
408.296	151.84
408.757	145.34
409.218	159.14
409.679	157.74
410.14	152.24
410.601	156.04
411.062	166.24
411.522	169.04
411.983	166.94
412.444	153.84
412.905	164.34
413.366	166.44
413.826	171.74
414.287	196.84
414.748	235.64
415.208	226.64
415.669	192.14
416.13	192.54
416.59	180.64
417.051	196.74
417.511	199.64
417.972	220.44
418.432	224.24
418.893	258.34
419.353	232.14
419.814	177.14
420.274	163.54
420.734	154.44
421.195	173.14
421.655	172.44
422.115	170.74
422.576	175.14
423.036	175.04
423.496	184.74
423.956	190.04
424.416	206.24
424.876	238.24
425.336	231.64
425.797	229.14
426.257	223.14
426.717	211.04
427.177	203.64
427.637	199.74
428.097	211.04
428.556	214.44
429.016	242.04
429.476	233.44
429.936	242.24
430.396	245.24
430.856	257.44
431.315	269.04
431.775	303.34
432.235	327.64
432.694	308.74
433.154	320.24
433.614	328.64
434.073	292.24
434.533	253.54
434.993	236.64
435.452	255.54
435.912	248.54
436.371	245.74
436.83	245.74
437.29	236.24
437.749	220.94
438.209	220.14
438.668	236.84
439.127	244.24
439.587	229.04
440.046	213.64
440.505	221.64
440.964	230.14
441.424	265.14
441.883	255.44
442.342	224.24
442.801	200.34
443.26	197.84
443.719	196.74
444.178	200.84
444.637	185.34
445.096	198.04
445.555	193.54
446.014	192.34
446.473	205.04
446.932	206.94
447.391	203.44
447.849	206.04
448.308	197.74
448.767	196.04
449.226	212.14
449.685	210.94
450.143	220.64
450.602	205.74
451.061	205.14
451.519	208.94
451.978	203.04
452.436	210.74
452.895	213.94
453.353	218.44
453.812	210.54
454.27	210.24
454.729	208.54
455.187	210.14
455.646	217.64
456.104	217.04
456.562	228.14
457.021	228.84
457.479	223.14
457.937	233.14
458.395	231.04
458.854	213.64
459.312	220.54
459.77	230.34
460.228	215.54
460.686	216.74
461.144	222.34
461.602	214.64
462.06	218.44
462.518	227.94
462.976	223.94
463.434	231.84
463.892	233.64
464.35	244.44
464.808	250.04
465.266	238.54
465.724	241.04
466.181	250.24
466.639	246.24
467.097	256.44
467.555	268.24
468.012	267.54
468.47	281.64
468.928	294.54
469.385	303.44
469.843	302.74
470.3	307.84
470.758	316.94
471.215	321.94
471.673	342.24
472.13	342.44
472.588	355.44
473.045	318.94
473.503	333.94
473.96	348.84
474.417	349.54
474.875	380.74
475.332	408.44
475.789	403.64
476.246	402.04
476.704	432.64
477.161	441.14
477.618	451.54
478.075	484.24
478.532	534.14
478.989	590.84
479.446	671.94
479.903	671.04
480.36	705.64
480.817	754.34
481.274	844.94
481.731	928.44
482.188	1014.64
482.645	1141.34
483.102	1224.24
483.558	1334.94
484.015	1394.54
484.472	1388.34
484.929	1328.14
485.385	1295.64
485.842	1269.54
486.299	1197.84
486.755	1125.14
487.212	966.54
487.668	820.94
488.125	762.84
488.582	696.04
489.038	668.24
489.494	636.64
489.951	613.94
490.407	590.64
490.864	569.04
491.32	564.04
491.776	567.14
492.233	569.64
492.689	525.84
493.145	530.54
493.602	528.34
494.058	536.14
494.514	536.94
494.97	548.84
495.426	554.64
495.882	534.14
496.338	536.84
496.794	542.84
497.251	545.34
497.707	549.34
498.163	555.54
498.618	560.34
499.074	557.94
499.53	573.24
499.986	578.04
500.442	572.94
500.898	560.94
501.354	542.44
501.809	548.44
502.265	556.04
502.721	571.24
503.177	580.24
503.632	567.34
504.088	586.34
504.543	606.74
504.999	613.94
505.455	561.54
505.91	546.54
506.366	553.04
506.821	541.74
507.277	548.34
507.732	551.24
508.187	555.94
508.643	554.34
509.098	553.74
509.553	566.54
510.009	577.14
510.464	589.24
510.919	600.14
511.375	603.24
511.83	611.54
512.285	630.44
512.74	662.64
513.195	676.04
513.65	666.44
514.105	672.74
514.56	676.44
515.015	680.74
515.47	706.94
515.925	688.24
516.38	691.04
516.835	694.64
517.29	685.84
517.745	672.84
518.2	665.64
518.655	655.54
519.109	639.84
519.564	651.94
520.019	636.04
520.474	639.34
520.928	632.44
521.383	624.74
521.838	618.44
522.292	616.84
522.747	610.24
523.201	609.34
523.656	592.54
524.11	597.54
524.565	598.64
525.019	593.04
525.474	600.14
525.928	611.34
526.382	595.94
526.837	596.14
527.291	596.54
527.745	601.54
528.2	593.94
528.654	597.64
529.108	585.34
529.562	588.64
530.016	585.24
530.47	596.74
530.925	590.64
531.379	592.84
531.833	599.64
532.287	598.74
532.741	601.44
533.195	608.34
533.649	602.74
534.103	614.14
534.556	605.44
535.01	599.34
535.464	601.84
535.918	604.14
536.372	613.14
536.826	613.24
537.279	596.34
537.733	611.54
538.187	608.24
538.64	606.24
539.094	612.24
539.548	617.64
540.001	623.14
540.455	604.04
540.908	627.24
541.362	619.54
541.815	641.34
542.269	643.94
542.722	657.34
543.175	653.24
543.629	650.14
544.082	672.94
544.536	666.94
544.989	665.94
545.442	668.84
545.895	668.94
546.349	674.04
546.802	668.14
547.255	681.04
547.708	679.64
548.161	685.94
548.614	686.84
549.067	699.44
549.52	689.64
549.973	687.74
550.426	674.74
550.879	670.24
551.332	670.94
551.785	669.74
552.238	681.64
552.691	682.44
553.144	696.74
553.596	697.04
554.049	725.34
554.502	748.64
554.955	762.34
555.407	756.04
555.86	751.84
556.313	740.84
556.765	724.14
557.218	736.74
557.67	737.14
558.123	722.14
558.576	719.74
559.028	732.14
559.48	731.64
559.933	727.04
560.385	695.74
560.838	681.74
561.29	654.34
561.742	654.34
562.195	630.74
562.647	632.74
563.099	641.14
563.551	640.34
564.004	650.34
564.456	635.94
564.908	629.74
565.36	614.24
565.812	601.94
566.264	596.64
566.716	588.94
567.168	585.84
567.62	596.74
568.072	571.64
568.524	565.84
568.976	573.04
569.428	560.24
569.88	552.34
570.332	548.34
570.784	559.14
571.235	554.44
571.687	570.64
572.139	572.14
572.59	574.74
573.042	588.74
573.494	588.24
573.945	573.24
574.397	569.94
574.849	568.44
575.3	562.94
575.752	560.64
576.203	559.14
576.655	557.04
577.106	539.04
577.557	539.94
578.009	543.54
578.46	546.64
578.912	528.64
579.363	538.84
579.814	540.44
580.265	532.24
580.717	529.64
581.168	543.64
581.619	551.54
582.07	537.04
582.521	544.34
582.972	539.34
583.423	546.14
583.875	546.14
584.326	558.64
584.777	596.34
585.227	656.84
585.678	720.44
586.129	779.54
586.58	846.54
587.031	907.54
587.482	1026.74
587.933	1181.64
588.384	1032.94
588.834	781.54
589.285	649.34
589.736	637.24
590.186	633.94
590.637	617.04
591.088	593.74
591.538	604.04
591.989	589.94
592.439	586.14
592.89	575.54
593.34	565.04
593.791	570.84
594.241	565.84
594.692	565.74
595.142	553.94
595.593	554.34
596.043	561.34
596.493	564.14
596.943	561.34
597.394	569.64
597.844	574.14
598.294	582.64
598.744	595.94
599.195	620.34
599.645	651.14
600.095	673.74
600.545	724.14
600.995	757.04
601.445	812.24
601.895	862.04
602.345	893.84
602.795	884.64
603.245	850.84
603.695	809.64
604.145	755.14
604.594	732.14
605.044	681.54
605.494	623.44
605.944	602.24
606.393	580.54
606.843	575.14
607.293	580.24
607.743	579.94
608.192	568.74
608.642	600.94
609.091	591.44
609.541	609.24
609.99	601.94
610.44	588.94
610.889	561.34
611.339	547.14
611.788	530.24
612.238	542.44
612.687	560.04
613.136	562.24
613.586	576.74
614.035	571.84
614.484	586.74
614.933	584.24
615.383	575.04
615.832	568.94
616.281	558.14
616.73	545.24
617.179	519.64
617.628	513.54
618.077	489.94
618.526	491.44
618.975	480.14
619.424	475.84
619.873	481.54
620.322	470.74
620.771	469.14
621.22	466.24
621.669	454.64
622.118	454.34
622.567	448.34
623.015	445.74
623.464	439.64
623.913	437.64
624.361	423.54
624.81	416.44
625.259	429.64
625.707	439.94
626.156	430.74
626.604	440.54
627.053	432.74
627.501	438.74
627.95	438.34
628.398	441.04
628.847	445.84
629.295	441.54
629.744	437.94
630.192	433.94
630.64	435.94
631.089	431.84
631.537	430.74
631.985	431.14
632.433	436.94
632.881	449.14
633.33	476.04
633.778	466.84
634.226	421.14
634.674	430.94
635.122	432.24
635.57	440.44
636.018	465.14
636.466	445.94
636.914	424.44
637.362	429.84
637.81	443.04
638.258	446.44
638.705	441.34
639.153	470.14
639.601	467.44
640.049	489.84
640.497	520.04
640.944	528.94
641.392	480.14
641.84	470.54
642.287	449.04
642.735	435.04
643.182	435.94
643.63	438.84
644.078	443.44
644.525	451.64
644.973	455.64
645.42	459.84
645.867	471.84
646.315	485.24
646.762	501.34
647.21	513.14
647.657	538.44
648.104	568.14
648.551	581.64
648.999	632.64
649.446	681.94
649.893	761.24
650.34	867.24
650.787	1042.14
651.234	1278.64
651.682	1637.34
652.129	2248.14
652.576	3207.74
653.023	4763.24
653.47	6651.34
653.917	8355.34
654.363	9880.74
654.81	11146.44
655.257	10613.44
655.704	6909.34
656.151	4013.94
656.598	2605.84
657.044	1845.74
657.491	1412.64
657.938	1122.94
658.385	946.74
658.831	817.24
659.278	719.54
659.724	647.44
660.171	587.94
660.618	541.34
661.064	513.84
661.511	489.94
661.957	474.34
662.404	465.04
662.85	473.04
663.296	456.04
663.743	419.44
664.189	409.84
664.635	402.94
665.082	397.04
665.528	391.94
665.974	387.34
666.42	384.54
666.867	373.64
667.313	357.74
667.759	365.44
668.205	356.54
668.651	359.84
669.097	358.04
669.543	367.64
669.989	344.54
670.435	338.74
670.881	339.04
671.327	338.14
671.773	355.84
672.219	357.84
672.665	407.04
673.11	437.54
673.556	470.54
674.002	509.44
674.448	499.94
674.893	418.04
675.339	359.24
675.785	332.54
676.23	310.34
676.676	283.54
677.122	286.64
677.567	282.24
678.013	281.04
678.458	267.94
678.904	270.04
679.349	257.74
679.794	263.24
680.24	264.14
680.685	263.04
681.131	259.84
681.576	264.54
682.021	266.34
682.466	255.24
682.912	252.94
683.357	259.04
683.802	276.24
684.247	293.74
684.692	333.04
685.137	364.74
685.583	404.34
686.028	419.74
686.473	390.94
686.918	327.54
687.363	306.64
687.807	292.04
688.252	265.24
688.697	270.64
689.142	251.44
689.587	249.14
690.032	239.44
690.477	251.04
690.921	258.34
691.366	288.74
691.811	297.24
692.255	317.14
692.7	340.94
693.145	368.34
693.589	493.04
694.034	802.24
694.478	1142.54
694.923	1331.44
695.367	1772.74
695.812	924.44
696.256	377.24
696.701	273.64
697.145	249.94
697.59	247.64
698.034	232.04
698.478	247.44
698.922	248.54
699.367	244.54
699.811	242.84
700.255	259.74
700.699	285.04
701.143	309.54
701.588	348.64
702.032	392.54
702.476	384.74
702.92	369.44
703.364	361.24
703.808	449.24
704.252	736.84
704.696	1070.04
705.14	1268.84
705.584	1652.64
706.027	819.64
706.471	396.84
706.915	286.74
707.359	266.44
707.803	239.74
708.246	236.34
708.69	229.14
709.134	227.14
709.577	238.74
710.021	235.94
710.465	227.84
710.908	217.14
711.352	222.64
711.795	233.74
712.239	248.64
712.682	281.64
713.126	311.74
713.569	353.34
714.012	273.24
714.456	240.14
714.899	219.14
715.342	203.14
715.786	196.84
716.229	194.14
716.672	190.94
717.115	182.34
717.558	188.64
718.002	188.84
718.445	197.54
718.888	215.54
719.331	213.04
719.774	224.84
720.217	228.44
720.66	214.54
721.103	196.04
721.546	199.74
721.989	183.44
722.432	166.84
722.874	176.14
723.317	168.44
723.76	177.74
724.203	181.84
724.645	226.64
725.088	320.84
725.531	414.54
725.974	482.74
726.416	420.74
726.859	223.24
727.301	182.04
727.744	169.84
728.187	171.74
728.629	170.74
729.071	176.64
729.514	193.64
729.956	188.74
730.399	205.04
730.841	210.74
731.283	202.44
731.726	192.34
732.168	191.34
732.61	197.24
733.053	216.14
733.495	225.04
733.937	255.24
734.379	294.54
734.821	310.74
735.263	390.44
735.705	595.44
736.148	1126.74
736.59	1898.24
737.032	2366.74
737.474	1930.34
737.916	613.04
738.357	319.74
738.799	241.04
739.241	217.84
739.683	208.64
740.125	210.34
740.567	218.74
741.008	237.24
741.45	237.04
741.892	233.64
742.334	258.84
742.775	270.54
743.217	261.34
743.658	200.94
744.1	187.04
744.542	189.94
744.983	232.14
745.425	261.64
745.866	259.44
746.307	207.14
746.749	203.94
747.19	235.44
747.632	330.44
748.073	617.04
748.514	1334.04
748.956	2142.04
749.397	2674.04
749.838	2225.94
750.279	2293.84
750.72	1145.04
751.162	410.14
751.603	240.34
752.044	188.54
752.485	158.94
752.926	148.24
753.367	154.94
753.808	143.84
754.249	140.04
754.69	138.24
755.131	131.14
755.572	131.04
756.013	125.04
756.453	130.34
756.894	139.14
757.335	140.94
757.776	144.84
758.216	140.84
758.657	143.84
759.098	151.94
759.538	162.84
759.979	190.54
760.42	265.84
760.86	498.24
761.301	1281.74
761.741	3251.64
762.182	5088.34
762.622	3591.14
763.063	1012.14
763.503	405.04
763.943	253.74
764.384	244.94
764.824	287.34
765.264	323.04
765.705	219.24
766.145	152.24
766.585	136.34
767.025	122.84
767.465	130.64
767.906	173.44
768.346	227.04
768.786	252.64
769.226	190.24
769.666	230.44
770.106	435.14
770.546	1113.54
770.986	2036.44
771.426	1856.04
771.866	603.24
772.306	239.54
772.745	156.04
773.185	129.24
773.625	122.44
774.065	123.84
774.505	138.24
774.944	207.34
775.384	453.04
775.824	857.54
776.263	865.34
776.703	363.84
777.142	156.64
777.582	111.84
778.021	106.54
778.461	103.44
778.9	98.24
779.34	97.34
779.779	83.14
780.219	77.24
780.658	78.74
781.097	73.94
781.537	85.24
781.976	76.94
782.415	81.44
782.855	74.94
783.294	69.64
783.733	77.54
784.172	76.74
784.611	81.24
785.05	75.94
785.489	77.64
785.928	90.84
786.367	97.74
786.806	87.54
787.245	95.14
787.684	96.34
788.123	101.74
788.562	103.94
789.001	92.84
789.44	90.34
789.879	82.84
790.317	85.54
790.756	94.94
791.195	90.64
791.634	106.64
792.072	146.74
792.511	262.64
792.95	715.74
793.388	1640.34
793.827	1530.44
794.265	517.24
794.704	212.94
795.142	137.84
795.581	114.74
796.019	100.54
796.458	92.44
796.896	84.54
797.334	95.34
797.773	114.94
798.211	154.64
798.649	309.24
799.087	743.24
799.526	1184.44
799.964	1507.64
800.402	1589.54
800.84	583.84
801.278	225.24
801.716	134.44
802.154	114.44
802.592	109.04
803.03	106.44
803.468	95.44
803.906	103.04
804.344	110.14
804.782	99.74
805.22	95.14
805.658	92.04
806.096	108.94
806.533	115.64
806.971	129.14
807.409	160.64
807.847	223.74
808.284	475.94
808.722	1365.34
809.16	2553.34
809.597	2357.64
810.035	4203.64
810.472	4721.34
810.91	1656.84
811.347	610.64
811.785	301.34
812.222	195.34
812.66	145.54
813.097	120.24
813.535	105.84
813.972	99.44
814.409	87.14
814.846	81.14
815.284	82.64
815.721	81.64
816.158	75.44
816.595	84.24
817.032	131.64
817.47	149.94
817.907	129.14
818.344	105.24
818.781	79.64
819.218	74.84
819.655	86.64
820.092	153.54
820.529	167.64
820.966	137.84
821.403	97.14
821.839	79.04
822.276	76.14
822.713	92.54
823.15	102.24
823.587	90.54
824.023	112.54
824.46	209.64
824.897	647.44
825.333	1052.34
825.77	451.14
826.206	176.84
826.643	104.24
827.08	73.14
827.516	55.34
827.953	56.34
828.389	65.04
828.825	51.24
829.262	45.44
829.698	47.34
830.135	49.74
830.571	45.94
831.007	42.94
831.443	45.84
831.88	47.84
832.316	45.14
832.752	45.24
833.188	45.54
833.624	47.74
834.06	47.64
834.497	49.94
834.933	49.04
835.369	49.44
835.805	44.44
836.241	54.34
836.677	60.24
837.112	60.94
837.548	75.84
837.984	95.34
838.42	141.04
838.856	351.74
839.292	1142.34
839.727	1825.44
840.163	840.14
840.599	683.84
841.034	1553.24
841.47	1713.14
841.906	603.74
842.341	253.54
842.777	174.84
843.212	224.04
843.648	229.24
844.083	110.84
844.519	67.74
844.954	52.94
845.39	45.04
845.825	37.14
846.261	40.14
846.696	38.04
847.131	38.94
847.566	42.44
848.002	37.24
848.437	35.74
848.872	45.34
849.307	47.04
849.742	60.04
850.177	134.14
850.613	411.84
851.048	684.24
851.483	291.94
851.918	114.24
852.353	61.24
852.788	39.24
853.223	37.94
853.657	37.84
854.092	31.44
854.527	26.34
854.962	31.24
855.397	32.54
855.832	39.34
856.266	34.84
856.701	27.34
857.136	30.04
857.57	31.94
858.005	31.84
858.44	46.24
858.874	33.54
859.309	37.44
859.743	28.64
860.178	32.34
860.612	25.74
861.047	34.74
861.481	58.84
861.915	56.44
862.35	38.94
862.784	28.94
863.218	29.34
863.653	26.84
864.087	34.04
864.521	34.84
864.955	50.54
865.39	114.84
865.824	135.64
866.258	84.14
866.692	131.34
867.126	142.34
867.56	80.54
867.994	38.74
868.428	30.54
868.862	32.94
869.296	43.14
869.73	48.04
870.164	41.54
870.598	33.24
871.031	31.64
871.465	25.94
871.899	22.84
872.333	17.24
872.766	13.44
873.2	12.34
873.634	15.34
874.067	16.34
874.501	25.54
874.935	26.84
875.368	21.94
875.802	17.84
876.235	15.74
876.669	14.24
877.102	14.24
877.535	19.74
877.969	14.84
878.402	17.84
878.836	14.34
879.269	13.14
879.702	14.54
880.135	14.64
880.569	18.84
881.002	22.14
881.435	20.14
881.868	13.84
882.301	18.04
882.734	7.24
883.167	20.34
883.601	9.94
884.034	10.04
884.467	9.24
884.899	15.34
885.332	10.04
885.765	11.64
886.198	8.54
886.631	14.44
887.064	11.24
887.497	16.84
887.929	21.64
888.362	9.94
888.795	8.94
889.228	16.04
889.66	19.14
890.093	14.44
890.526	11.14
890.958	12.44
891.391	12.74
891.823	16.04
892.256	11.04
892.688	13.04
893.121	13.64
893.553	9.44
893.985	22.94
894.418	14.64
894.85	7.34
895.282	8.64
895.715	9.84
896.147	10.64
896.579	10.94
897.011	7.34
897.444	7.84
897.876	11.64
898.308	13.84
898.74	12.94
899.172	8.24
899.604	24.04
900.036	23.44
900.468	3.24
900.9	14.14
901.332	14.64
901.764	9.14
902.196	14.34
902.628	9.54
903.06	7.14
903.491	27.64
903.923	17.24
904.355	15.94
904.787	14.54
905.218	12.84
905.65	15.14
906.082	8.04
906.513	10.84
906.945	7.74
907.376	8.94
907.808	17.64
908.239	17.54
908.671	13.04
909.102	19.14
909.534	19.54
909.965	37.64
910.397	75.54
910.828	241.74
911.259	386.54
911.691	174.14
912.122	78.64
912.553	36.14
912.984	28.04
913.415	17.64
913.847	18.54
914.278	10.74
914.709	10.74
915.14	18.74
915.571	12.14
916.002	11.24
916.433	14.34
916.864	9.94
917.295	2.54
917.726	12.34
918.157	13.34
918.587	21.14
919.018	16.24
919.449	17.34
919.88	20.04
920.311	20.64
920.741	36.84
921.172	135.64
921.603	116.54
922.033	58.14
922.464	38.44
922.895	18.54
923.325	13.14
923.756	18.34
924.186	-0.36
924.617	14.54
925.047	24.84
925.478	39.84
925.908	31.24
926.338	14.84
926.769	12.54
927.199	13.44
927.629	4.54
928.06	13.14
928.49	11.14
928.92	14.14
929.35	3.84
929.78	4.54
930.21	2.94
930.641	7.54
931.071	7.34
931.501	8.54
931.931	5.04
932.361	10.74
932.791	-0.06
933.221	0.34
933.651	-0.16
934.08	12.64
934.51	31.44
934.94	4.44
935.37	2.54
935.8	3.44
936.229	5.04
936.659	9.64
937.089	4.64
937.519	11.24
937.948	14.64
938.378	8.14
938.807	4.84
939.237	7.64
939.666	0.84
940.096	-4.66
940.525	6.04
940.955	7.14
941.384	5.24
941.814	-4.26
942.243	-0.46
942.672	0.74
943.102	-7.36
943.531	2.54
943.96	7.54
944.39	0.24
944.819	1.14
945.248	3.74
945.677	5.84
946.106	8.64
946.535	4.94
946.964	0.44
947.393	2.14
947.822	-0.26
948.251	-4.36
948.68	6.74
949.109	4.34
949.538	4.74
949.967	-3.66
950.396	5.74
950.825	3.64
951.254	5.64
951.682	-7.66
952.111	4.24
952.54	5.44
952.969	-2.06
953.397	-3.86
953.826	6.04
954.254	-4.46
954.683	3.44
955.112	-3.66
955.54	6.74
955.969	-4.16
956.397	2.94
956.826	1.04
957.254	0.14
957.682	2.54
958.111	5.64
958.539	3.34
958.967	-4.86
959.396	1.24
959.824	-0.96
960.252	2.64
960.68	-4.56
961.109	-5.86
961.537	-1.96
961.965	-3.56
962.393	0.04
962.821	-3.46
963.249	3.64
963.677	1.04
964.105	1.14
964.533	29.04
964.961	33.24
965.389	14.04
965.817	5.74
966.245	5.94
966.672	-0.76
967.1	-2.66
967.528	2.94
967.956	-0.36
968.383	-2.76
968.811	4.74
969.239	0.64
969.666	-7.76
970.094	4.54
970.522	3.84
970.949	-0.66
971.377	-0.76
971.804	0.44
972.232	-3.36
972.659	-2.16
973.087	-2.26
973.514	2.14
973.941	-2.06
974.369	2.54
974.796	-0.66
975.223	-3.26
975.651	-2.46
976.078	3.64
976.505	3.04
976.932	0.04
977.359	12.24
977.786	11.84
978.214	-1.56
978.641	0.94
979.068	-3.16
979.495	-9.26
979.922	-0.46
980.349	1.44
980.776	2.44
981.202	-2.86
981.629	5.94
982.056	1.54
982.483	-3.96
982.91	4.34
983.337	-2.56
983.763	5.24
984.19	-6.36
984.617	-3.96
985.043	-9.76
985.47	-0.56
985.897	-7.16
986.323	-4.96
986.75	4.54
987.176	5.04
987.603	-3.96
988.029	-2.46
988.456	0.54
988.882	1.04
989.308	-5.56
989.735	-4.66
990.161	-2.86
990.587	-5.26
991.014	-2.36
991.44	4.94
991.866	-3.06
992.292	-2.36
992.719	1.34
993.145	2.04
993.571	-8.86
993.997	-3.76
994.423	-6.06
994.849	-2.16
995.275	1.04
995.701	-0.36
996.127	-3.86
996.553	3.64
996.979	0.64
997.405	0.44
997.83	-2.16
998.256	-5.06
998.682	-3.96
999.108	-0.86
999.534	-3.16
999.959	0.84
1000.385	-5.46
1000.811	-2.76
1001.236	-5.56
1001.662	-6.56
1002.087	-7.76
1002.513	1.34
1002.938	6.14
1003.364	3.34
1003.789	-3.06
1004.215	1.74
1004.64	-6.46
1005.066	3.54
1005.491	5.14
1005.916	-0.86
1006.342	-2.46
1006.767	-6.96
1007.192	4.14
1007.617	-5.06
1008.042	-5.46
1008.468	-11.76
1008.893	-6.66
1009.318	-4.66
1009.743	-0.56
1010.168	2.14
1010.593	0.24
1011.018	-11.26
1011.443	-1.76
1011.868	2.44
1012.293	-7.46
1012.718	-13.56
1013.143	1.84
1013.567	3.44
1013.992	-1.56
1014.417	-9.06
1014.842	5.14
1015.267	-8.76
1015.691	0.84
1016.116	6.74
1016.541	3.34
1016.965	-0.16
1017.39	2.24
1017.814	-0.46
1018.239	0.44
1018.663	-7.46
1019.088	-14.96
1019.512	-2.96
1019.937	5.64
1020.361	0.44
1020.785	-6.46
1021.21	-3.66
1021.634	-1.96
1022.058	3.24
1022.483	2.24
1022.907	-1.66
1023.331	-4.96
1023.755	-4.56
1024.179	-2.36
1024.604	-3.66
1025.028	-0.16
1025.452	-2.76
1025.876	-3.66
1026.3	5.44
1026.724	-9.96
1027.148	-8.06
1027.572	-7.26
1027.996	1.24
1028.42	-0.26
1028.843	-1.86
1029.267	-0.06
1029.691	-6.36
1030.115	-11.46
1030.539	-7.96
1030.962	-2.96
1031.386	-12.36
1031.81	1.84
1032.233	-1.76
1032.657	1.54
1033.08	-0.86
1033.504	0.64
1033.927	-0.06
1034.351	0.04
1034.774	-6.66
1035.198	-4.16
1035.621	-0.86
1036.045	-3.36
1036.468	-0.86
1036.891	-11.06
1037.315	-12.66
1037.738	-9.66
1038.161	0.94
1038.584	-8.86
1039.008	-6.96
1039.431	0.04
1039.854	-2.26
1040.277	-5.16
1040.7	-14.06
1041.123	-3.76
1041.546	-9.76
1041.969	-5.16
1042.392	-3.26
1042.815	-0.46
1043.238	-0.16
1043.661	6.54
1044.084	-7.16
1044.507	-1.86
1044.93	-10.16
1045.352	-7.66
1045.775	2.94
1046.198	-5.06
1046.621	-7.96
1047.043	-6.96
1047.466	2.94
1047.889	-3.06
1048.311	-8.76
1048.734	-6.26
1049.156	-2.86
1049.579	1.64
1050.001	-2.16
1050.424	-4.76
1050.846	-0.16
1051.269	-1.16
1051.691	-4.16
1052.113	-5.76
1052.536	-0.46
1052.958	0.14
1053.38	-1.56
1053.802	-2.46
1054.225	2.94
1054.647	-9.46
1055.069	-3.26
1055.491	2.94
1055.913	-12.16
1056.335	2.64
1056.757	-6.66
1057.179	-3.76
1057.601	-1.96
1058.023	-0.36
1058.445	0.24
1058.867	-0.66
1059.289	-11.06
1059.711	-3.06
1060.133	-1.96
1060.555	-5.26
1060.976	-10.06
1061.398	-6.36
1061.82	-6.66
1062.241	-5.26
1062.663	-13.76
1063.085	-4.26
1063.506	1.14
1063.928	-0.06
1064.35	-4.56
1064.771	-11.46
1065.193	1.74
1065.614	-7.56
1066.035	-3.56
1066.457	-6.66
1066.878	1.74
1067.3	-4.36
1067.721	-0.36
1068.142	-2.46
1068.564	-5.36
1068.985	-5.86
1069.406	-6.36
1069.827	-1.96
1070.248	-7.26
1070.67	-6.16
1071.091	-2.36
1071.512	-1.36
1071.933	-2.26
1072.354	-4.76
1072.775	-2.46
1073.196	-5.66
1073.617	0.74
1074.038	-11.36
1074.459	-4.66
1074.88	-7.56
1075.3	3.14
1075.721	-5.66
1076.142	-0.76
1076.563	-6.16
1076.983	-10.16
1077.404	-1.06
1077.825	-9.06
1078.246	-7.36
1078.666	-6.76
1079.087	4.54
1079.507	-2.76
1079.928	1.54
1080.348	-3.46
1080.769	1.44
1081.189	0.64
1081.61	-4.66
1082.03	-8.26
1082.451	-8.96
1082.871	-8.26
1083.291	-6.56
1083.711	-8.36
1084.132	-4.96
1084.552	-2.06
1084.972	0.24
1085.392	-10.36
1085.813	-4.86
1086.233	-9.06
1086.653	-5.16
1087.073	-1.86
1087.493	-7.06
1087.913	-7.66
1088.333	-6.36
1088.753	-3.46
1089.173	-0.56
1089.593	-4.36
1090.013	-4.06
1090.433	-2.66
1090.852	-5.86
1091.272	-1.16
1091.692	-3.76
1092.112	-2.96
1092.531	-6.66
1092.951	-10.66
1093.371	1.04
1093.79	4.34
1094.21	-4.76
1094.63	-3.16
1095.049	-6.56
1095.469	-0.66
1095.888	-6.56
1096.308	-3.46
1096.727	5.34
1097.146	-5.96
1097.566	-0.66
1097.985	-4.86
1098.405	-5.66
1098.824	-6.66
1099.243	-5.06
1099.662	-4.86
1100.082	-4.56
1100.501	0.64
1100.92	-6.66
1101.339	-7.26
1101.758	-3.66
