Data from 20170802-ORNL-NYSim-Air_HRD10391_10-36-05-568.txt Node
Date: Wed Aug 02 10:36:05 EDT 2017
User: Ender
Spectrometer: HR+D1039
Trigger mode: 0
Integration Time (sec): 3.750000E-3
Scans to average: 1
Electric dark correction enabled: true
Nonlinearity correction enabled: false
Boxcar width: 0
XAxis mode: Wavelengths
Number of Pixels in Spectrum: 2048
>>>>>Begin Spectral Data<<<<<
187.836	0
188.309	0
188.782	0
189.255	6
189.728	-10
190.201	-2
190.674	-8
191.147	0
191.619	-11
192.092	-9
192.565	1
193.038	-6
193.511	-1
193.984	2
194.456	-1
194.929	2
195.402	10
195.874	27
196.347	27
196.82	26
197.292	34
197.765	26
198.237	24
198.71	38
199.182	46
199.655	59
200.127	46
200.6	63
201.072	65
201.544	64
202.017	67
202.489	65
202.961	49
203.433	73
203.906	69
204.378	78
204.85	86
205.322	89
205.794	98
206.266	66
206.739	77
207.211	90
207.683	71
208.155	96
208.627	78
209.099	95
209.57	87
210.042	78
210.514	89
210.986	95
211.458	94
211.93	88
212.402	80
212.873	83
213.345	78
213.817	84
214.288	82
214.76	58
215.232	74
215.703	82
216.175	89
216.646	83
217.118	85
217.589	95
218.061	80
218.532	72
219.004	76
219.475	74
219.946	77
220.418	103
220.889	82
221.36	88
221.832	83
222.303	86
222.774	92
223.245	79
223.717	98
224.188	100
224.659	104
225.13	76
225.601	90
226.072	77
226.543	75
227.014	66
227.485	76
227.956	91
228.427	76
228.898	90
229.369	70
229.839	84
230.31	86
230.781	94
231.252	75
231.722	75
232.193	84
232.664	82
233.135	82
233.605	80
234.076	83
234.546	84
235.017	84
235.487	86
235.958	102
236.428	83
236.899	102
237.369	93
237.84	66
238.31	121
238.78	87
239.251	83
239.721	98
240.191	86
240.662	93
241.132	94
241.602	83
242.072	106
242.542	82
243.013	83
243.483	94
243.953	88
244.423	87
244.893	106
245.363	84
245.833	88
246.303	111
246.773	99
247.243	98
247.712	92
248.182	95
248.652	84
249.122	93
249.592	96
250.061	104
250.531	86
251.001	90
251.471	104
251.94	79
252.41	93
252.879	94
253.349	102
253.818	95
254.288	90
254.757	90
255.227	88
255.696	92
256.166	102
256.635	108
257.105	89
257.574	92
258.043	106
258.513	100
258.982	91
259.451	88
259.92	113
260.389	114
260.859	112
261.328	94
261.797	93
262.266	100
262.735	87
263.204	102
263.673	106
264.142	98
264.611	116
265.08	115
265.549	105
266.018	103
266.487	109
266.955	101
267.424	106
267.893	109
268.362	108
268.83	112
269.299	105
269.768	92
270.236	109
270.705	107
271.174	112
271.642	100
272.111	107
272.579	110
273.048	112
273.516	116
273.985	118
274.453	111
274.922	117
275.39	130
275.858	128
276.327	120
276.795	118
277.263	117
277.731	107
278.2	129
278.668	108
279.136	118
279.604	126
280.072	102
280.54	120
281.008	124
281.477	119
281.945	119
282.413	147
282.881	116
283.348	101
283.816	130
284.284	124
284.752	134
285.22	135
285.688	122
286.156	111
286.623	120
287.091	123
287.559	127
288.026	133
288.494	95
288.962	123
289.429	131
289.897	135
290.364	122
290.832	135
291.3	140
291.767	128
292.234	121
292.702	122
293.169	134
293.637	130
294.104	151
294.571	130
295.039	154
295.506	139
295.973	140
296.44	135
296.908	139
297.375	141
297.842	143
298.309	127
298.776	142
299.243	149
299.71	149
300.177	127
300.644	119
301.111	152
301.578	151
302.045	138
302.512	146
302.979	140
303.446	152
303.913	153
304.379	142
304.846	162
305.313	165
305.78	159
306.246	147
306.713	136
307.18	134
307.646	135
308.113	143
308.579	147
309.046	160
309.512	166
309.979	146
310.445	160
310.912	152
311.378	167
311.845	180
312.311	170
312.777	149
313.244	161
313.71	182
314.176	154
314.642	166
315.109	157
315.575	177
316.041	167
316.507	186
316.973	163
317.439	191
317.905	169
318.371	178
318.837	184
319.303	194
319.769	167
320.235	194
320.701	190
321.167	192
321.633	181
322.099	174
322.564	199
323.03	169
323.496	195
323.962	195
324.427	189
324.893	189
325.359	189
325.824	197
326.29	186
326.755	167
327.221	199
327.686	209
328.152	198
328.617	202
329.083	199
329.548	208
330.014	205
330.479	226
330.944	216
331.41	217
331.875	224
332.34	215
332.805	205
333.271	217
333.736	222
334.201	208
334.666	216
335.131	236
335.596	216
336.061	205
336.526	194
336.991	210
337.456	208
337.921	204
338.386	230
338.851	224
339.316	206
339.781	218
340.246	228
340.711	221
341.175	230
341.64	224
342.105	221
342.569	230
343.034	234
343.499	232
343.963	256
344.428	238
344.893	232
345.357	213
345.822	248
346.286	248
346.751	227
347.215	243
347.679	264
348.144	246
348.608	255
349.073	257
349.537	267
350.001	268
350.465	275
350.93	270
351.394	283
351.858	284
352.322	288
352.786	274
353.25	274
353.715	266
354.179	288
354.643	310
355.107	320
355.571	330
356.035	300
356.498	306
356.962	272
357.426	293
357.89	302
358.354	260
358.818	265
359.281	280
359.745	289
360.209	306
360.673	289
361.136	304
361.6	291
362.064	314
362.527	298
362.991	300
363.454	298
363.918	311
364.381	310
364.845	292
365.308	294
365.772	326
366.235	304
366.698	292
367.162	289
367.625	296
368.088	300
368.552	323
369.015	312
369.478	338
369.941	282
370.404	308
370.867	316
371.331	314
371.794	329
372.257	320
372.72	317
373.183	323
373.646	347
374.109	330
374.572	340
375.035	345
375.497	346
375.96	354
376.423	344
376.886	345
377.349	334
377.811	353
378.274	358
378.737	349
379.199	392
379.662	373
380.125	361
380.587	391
381.05	362
381.512	350
381.975	358
382.437	381
382.9	378
383.362	383
383.825	393
384.287	392
384.75	388
385.212	401
385.674	411
386.136	411
386.599	400
387.061	390
387.523	401
387.985	386
388.447	410
388.91	424
389.372	398
389.834	411
390.296	396
390.758	404
391.22	411
391.682	437
392.144	404
392.606	412
393.068	428
393.529	441
393.991	447
394.453	431
394.915	398
395.377	432
395.838	424
396.3	431
396.762	441
397.224	424
397.685	426
398.147	438
398.608	439
399.07	419
399.531	420
399.993	469
400.454	467
400.916	483
401.377	453
401.839	477
402.3	473
402.762	491
403.223	494
403.684	493
404.145	513
404.607	478
405.068	478
405.529	459
405.99	491
406.451	476
406.913	466
407.374	475
407.835	476
408.296	497
408.757	492
409.218	507
409.679	515
410.14	521
410.601	543
411.062	562
411.522	513
411.983	564
412.444	586
412.905	591
413.366	599
413.826	591
414.287	710
414.748	825
415.208	858
415.669	698
416.13	636
416.59	638
417.051	642
417.511	684
417.972	726
418.432	786
418.893	898
419.353	904
419.814	647
420.274	576
420.734	582
421.195	603
421.655	595
422.115	600
422.576	612
423.036	623
423.496	604
423.956	638
424.416	670
424.876	761
425.336	754
425.797	744
426.257	709
426.717	686
427.177	626
427.637	605
428.097	633
428.556	650
429.016	674
429.476	702
429.936	658
430.396	670
430.856	669
431.315	669
431.775	675
432.235	735
432.694	751
433.154	696
433.614	714
434.073	686
434.533	652
434.993	643
435.452	623
435.912	623
436.371	634
436.83	621
437.29	656
437.749	615
438.209	619
438.668	629
439.127	660
439.587	664
440.046	670
440.505	678
440.964	681
441.424	675
441.883	721
442.342	680
442.801	660
443.26	648
443.719	661
444.178	662
444.637	681
445.096	687
445.555	664
446.014	712
446.473	681
446.932	727
447.391	706
447.849	686
448.308	686
448.767	688
449.226	711
449.685	716
450.143	723
450.602	753
451.061	718
451.519	719
451.978	676
452.436	694
452.895	691
453.353	700
453.812	670
454.27	729
454.729	717
455.187	688
455.646	745
456.104	728
456.562	732
457.021	731
457.479	671
457.937	734
458.395	740
458.854	744
459.312	703
459.77	718
460.228	733
460.686	731
461.144	755
461.602	767
462.06	765
462.518	745
462.976	786
463.434	775
463.892	797
464.35	793
464.808	801
465.266	819
465.724	813
466.181	802
466.639	806
467.097	846
467.555	873
468.012	851
468.47	868
468.928	921
469.385	924
469.843	913
470.3	918
470.758	982
471.215	931
471.673	958
472.13	978
472.588	993
473.045	1004
473.503	1030
473.96	1040
474.417	1051
474.875	1068
475.332	1096
475.789	1129
476.246	1154
476.704	1124
477.161	1157
477.618	1174
478.075	1184
478.532	1243
478.989	1270
479.446	1319
479.903	1306
480.36	1330
480.817	1306
481.274	1329
481.731	1390
482.188	1418
482.645	1410
483.102	1451
483.558	1512
484.015	1509
484.472	1502
484.929	1482
485.385	1488
485.842	1527
486.299	1548
486.755	1565
487.212	1483
487.668	1470
488.125	1440
488.582	1443
489.038	1457
489.494	1496
489.951	1475
490.407	1492
490.864	1493
491.32	1467
491.776	1514
492.233	1526
492.689	1477
493.145	1503
493.602	1450
494.058	1523
494.514	1519
494.97	1562
495.426	1543
495.882	1537
496.338	1599
496.794	1612
497.251	1541
497.707	1608
498.163	1604
498.618	1635
499.074	1631
499.53	1620
499.986	1644
500.442	1598
500.898	1617
501.354	1587
501.809	1654
502.265	1642
502.721	1632
503.177	1658
503.632	1694
504.088	1668
504.543	1715
504.999	1705
505.455	1691
505.91	1732
506.366	1656
506.821	1694
507.277	1663
507.732	1692
508.187	1688
508.643	1687
509.098	1674
509.553	1741
510.009	1781
510.464	1763
510.919	1823
511.375	1783
511.83	1844
512.285	1865
512.74	1900
513.195	1913
513.65	1950
514.105	2030
514.56	1969
515.015	2053
515.47	2074
515.925	1993
516.38	2023
516.835	2034
517.29	2027
517.745	2091
518.2	1966
518.655	1980
519.109	1948
519.564	1872
520.019	1911
520.474	1856
520.928	1846
521.383	1856
521.838	1863
522.292	1857
522.747	1794
523.201	1792
523.656	1824
524.11	1850
524.565	1814
525.019	1798
525.474	1783
525.928	1803
526.382	1809
526.837	1775
527.291	1771
527.745	1766
528.2	1755
528.654	1743
529.108	1721
529.562	1767
530.016	1752
530.47	1778
530.925	1755
531.379	1737
531.833	1784
532.287	1744
532.741	1781
533.195	1740
533.649	1818
534.103	1780
534.556	1813
535.01	1744
535.464	1746
535.918	1777
536.372	1788
536.826	1761
537.279	1753
537.733	1772
538.187	1802
538.64	1732
539.094	1752
539.548	1786
540.001	1824
540.455	1822
540.908	1785
541.362	1851
541.815	1826
542.269	1936
542.722	1903
543.175	1954
543.629	1906
544.082	1949
544.536	1963
544.989	1939
545.442	1994
545.895	2000
546.349	1984
546.802	2012
547.255	1950
547.708	2013
548.161	2049
548.614	2060
549.067	2050
549.52	2059
549.973	2026
550.426	2010
550.879	1953
551.332	1976
551.785	1998
552.238	1968
552.691	2038
553.144	2034
553.596	2085
554.049	2115
554.502	2137
554.955	2242
555.407	2201
555.86	2184
556.313	2186
556.765	2194
557.218	2123
557.67	2145
558.123	2051
558.576	2091
559.028	2067
559.48	2110
559.933	2143
560.385	2004
560.838	1964
561.29	1920
561.742	1942
562.195	1852
562.647	1854
563.099	1862
563.551	1819
564.004	1872
564.456	1871
564.908	1815
565.36	1754
565.812	1710
566.264	1727
566.716	1684
567.168	1685
567.62	1661
568.072	1674
568.524	1696
568.976	1676
569.428	1612
569.88	1622
570.332	1621
570.784	1654
571.235	1653
571.687	1643
572.139	1635
572.59	1629
573.042	1682
573.494	1696
573.945	1686
574.397	1648
574.849	1590
575.3	1577
575.752	1598
576.203	1554
576.655	1612
577.106	1584
577.557	1535
578.009	1555
578.46	1543
578.912	1537
579.363	1567
579.814	1545
580.265	1581
580.717	1561
581.168	1517
581.619	1557
582.07	1609
582.521	1544
582.972	1534
583.423	1541
583.875	1588
584.326	1570
584.777	1588
585.227	1627
585.678	1672
586.129	1670
586.58	1712
587.031	1704
587.482	1746
587.933	1792
588.384	1789
588.834	1745
589.285	1710
589.736	1768
590.186	1749
590.637	1758
591.088	1718
591.538	1651
591.989	1672
592.439	1625
592.89	1615
593.34	1576
593.791	1597
594.241	1616
594.692	1586
595.142	1595
595.593	1549
596.043	1555
596.493	1570
596.943	1630
597.394	1625
597.844	1658
598.294	1701
598.744	1752
599.195	1848
599.645	1934
600.095	2029
600.545	2123
600.995	2235
601.445	2337
601.895	2469
602.345	2574
602.795	2528
603.245	2405
603.695	2334
604.145	2150
604.594	2032
605.044	1934
605.494	1799
605.944	1708
606.393	1635
606.843	1633
607.293	1622
607.743	1592
608.192	1637
608.642	1614
609.091	1603
609.541	1634
609.99	1624
610.44	1558
610.889	1552
611.339	1531
611.788	1524
612.238	1565
612.687	1553
613.136	1560
613.586	1565
614.035	1551
614.484	1543
614.933	1593
615.383	1545
615.832	1500
616.281	1529
616.73	1482
617.179	1432
617.628	1396
618.077	1390
618.526	1367
618.975	1362
619.424	1314
619.873	1353
620.322	1332
620.771	1284
621.22	1274
621.669	1290
622.118	1259
622.567	1249
623.015	1256
623.464	1233
623.913	1184
624.361	1186
624.81	1191
625.259	1201
625.707	1204
626.156	1176
626.604	1228
627.053	1218
627.501	1236
627.95	1228
628.398	1284
628.847	1204
629.295	1236
629.744	1241
630.192	1202
630.64	1193
631.089	1131
631.537	1148
631.985	1101
632.433	1132
632.881	1139
633.33	1104
633.778	1131
634.226	1128
634.674	1136
635.122	1122
635.57	1152
636.018	1172
636.466	1143
636.914	1162
637.362	1170
637.81	1196
638.258	1227
638.705	1238
639.153	1265
639.601	1299
640.049	1304
640.497	1333
640.944	1370
641.392	1349
641.84	1199
642.287	1169
642.735	1112
643.182	1104
643.63	1094
644.078	1064
644.525	1085
644.973	1080
645.42	1079
645.867	1072
646.315	1089
646.762	1101
647.21	1087
647.657	1114
648.104	1078
648.551	1025
648.999	1022
649.446	1040
649.893	1023
650.34	1062
650.787	1091
651.234	1093
651.682	1160
652.129	1250
652.576	1429
653.023	1633
653.47	1805
653.917	1908
654.363	1921
654.81	2002
655.257	2103
655.704	1744
656.151	1388
656.598	1155
657.044	1066
657.491	1042
657.938	1020
658.385	996
658.831	1009
659.278	990
659.724	993
660.171	970
660.618	946
661.064	946
661.511	916
661.957	934
662.404	946
662.85	990
663.296	942
663.743	976
664.189	935
664.635	998
665.082	961
665.528	933
665.974	960
666.42	912
666.867	954
667.313	939
667.759	896
668.205	861
668.651	898
669.097	870
669.543	878
669.989	910
670.435	905
670.881	929
671.327	917
671.773	989
672.219	1082
672.665	1201
673.11	1270
673.556	1282
674.002	1295
674.448	1371
674.893	1203
675.339	1015
675.785	907
676.23	873
676.676	831
677.122	838
677.567	808
678.013	767
678.458	766
678.904	772
679.349	761
679.794	750
680.24	778
680.685	760
681.131	758
681.576	767
682.021	754
682.466	760
682.912	772
683.357	791
683.802	860
684.247	942
684.692	1012
685.137	1042
685.583	1070
686.028	1140
686.473	1130
686.918	975
687.363	870
687.807	852
688.252	796
688.697	763
689.142	759
689.587	700
690.032	717
690.477	762
690.921	782
691.366	849
691.811	882
692.255	964
692.7	1080
693.145	1421
693.589	2208
694.034	2969
694.478	3244
694.923	3058
695.367	3866
695.812	3435
696.256	1319
696.701	856
697.145	756
697.59	757
698.034	717
698.478	731
698.922	746
699.367	751
699.811	764
700.255	785
700.699	884
701.143	974
701.588	1043
702.032	1112
702.476	1104
702.92	1151
703.364	1334
703.808	1929
704.252	2779
704.696	3169
705.14	2906
705.584	3674
706.027	2928
706.471	1363
706.915	894
707.359	795
707.803	748
708.246	722
708.69	722
709.134	698
709.577	694
710.021	704
710.465	684
710.908	696
711.352	682
711.795	755
712.239	829
712.682	892
713.126	820
713.569	913
714.012	858
714.456	707
714.899	652
715.342	622
715.786	627
716.229	575
716.672	550
717.115	555
717.558	564
718.002	590
718.445	607
718.888	642
719.331	687
719.774	662
720.217	686
720.66	635
721.103	565
721.546	595
721.989	577
722.432	552
722.874	539
723.317	577
723.76	593
724.203	666
724.645	864
725.088	1070
725.531	1143
725.974	1131
726.416	1219
726.859	764
727.301	603
727.744	532
728.187	540
728.629	546
729.071	589
729.514	602
729.956	641
730.399	638
730.841	642
731.283	638
731.726	620
732.168	626
732.61	638
733.053	689
733.495	722
733.937	820
734.379	949
734.821	1103
735.263	1538
735.705	2670
736.148	4502
736.59	5274
737.032	5002
737.474	5288
737.916	2433
738.357	1115
738.799	783
739.241	686
739.683	704
740.125	690
740.567	701
741.008	729
741.45	783
741.892	824
742.334	802
742.775	834
743.217	818
743.658	675
744.1	627
744.542	732
744.983	804
745.425	796
745.866	844
746.307	735
746.749	706
747.19	882
747.632	1495
748.073	3002
748.514	4789
748.956	5882
749.397	7946
749.838	6393
750.279	5238
750.72	3773
751.162	1662
751.603	856
752.044	650
752.485	555
752.926	511
753.367	498
753.808	464
754.249	492
754.69	456
755.131	451
755.572	467
756.013	466
756.453	470
756.894	462
757.335	469
757.776	475
758.216	481
758.657	488
759.098	534
759.538	612
759.979	766
760.42	1278
760.86	2940
761.301	7020
761.741	10490
762.182	10799
762.622	9990
763.063	4398
763.503	1688
763.943	876
764.384	658
764.824	568
765.264	491
765.705	476
766.145	484
766.585	475
767.025	461
767.465	454
767.906	434
768.346	462
768.786	481
769.226	586
769.666	1079
770.106	2338
770.546	4240
770.986	4586
771.426	4476
771.866	2349
772.306	1046
772.745	614
773.185	478
773.625	426
774.065	422
774.505	476
774.944	765
775.384	1172
775.824	1338
776.263	1296
776.703	936
777.142	562
777.582	396
778.021	369
778.461	355
778.9	324
779.34	333
779.779	330
780.219	338
780.658	322
781.097	305
781.537	305
781.976	307
782.415	297
782.855	329
783.294	300
783.733	286
784.172	303
784.611	288
785.05	307
785.489	318
785.928	325
786.367	322
786.806	332
787.245	372
787.684	374
788.123	359
788.562	368
789.001	325
789.44	342
789.879	325
790.317	322
790.756	347
791.195	380
791.634	432
792.072	635
792.511	1398
792.95	3037
793.388	3991
793.827	3447
794.265	1902
794.704	936
795.142	534
795.581	424
796.019	377
796.458	357
796.896	355
797.334	365
797.773	458
798.211	728
798.649	1449
799.087	2551
799.526	3905
799.964	4332
800.402	3588
800.84	2012
801.278	1004
801.716	581
802.154	442
802.592	378
803.03	364
803.468	415
803.906	422
804.344	394
804.782	392
805.22	384
805.658	402
806.096	413
806.533	436
806.971	497
807.409	650
807.847	1009
808.284	2501
808.722	5160
809.16	7251
809.597	10027
810.035	12752
810.472	10876
810.91	5843
811.347	2725
811.785	1225
812.222	701
812.66	538
813.097	442
813.535	400
813.972	363
814.409	338
814.846	322
815.284	319
815.721	304
816.158	318
816.595	366
817.032	463
817.47	472
817.907	403
818.344	344
818.781	330
819.218	338
819.655	461
820.092	588
820.529	592
820.966	510
821.403	406
821.839	334
822.276	327
822.713	360
823.15	375
823.587	401
824.023	529
824.46	1172
824.897	2224
825.333	2342
825.77	1354
826.206	757
826.643	434
827.08	320
827.516	293
827.953	254
828.389	260
828.825	248
829.262	234
829.698	242
830.135	209
830.571	221
831.007	234
831.443	204
831.88	206
832.316	219
832.752	235
833.188	222
833.624	239
834.06	227
834.497	224
834.933	231
835.369	253
835.805	244
836.241	275
836.677	281
837.112	283
837.548	344
837.984	435
838.42	693
838.856	1815
839.292	3998
839.727	4286
840.163	2734
840.599	3266
841.034	5112
841.47	3897
841.906	2111
842.341	1152
842.777	666
843.212	593
843.648	503
844.083	392
844.519	301
844.954	232
845.39	222
845.825	210
846.261	214
846.696	211
847.131	204
847.566	220
848.002	202
848.437	203
848.872	204
849.307	238
849.742	321
850.177	685
850.613	1464
851.048	1653
851.483	911
851.918	562
852.353	342
852.788	242
853.223	200
853.657	196
854.092	190
854.527	182
854.962	197
855.397	193
855.832	194
856.266	192
856.701	180
857.136	175
857.57	201
858.005	219
858.44	218
858.874	196
859.309	190
859.743	187
860.178	170
860.612	183
861.047	217
861.481	274
861.915	270
862.35	198
862.784	177
863.218	171
863.653	166
864.087	183
864.521	219
864.955	276
865.39	450
865.824	437
866.258	434
866.692	558
867.126	541
867.56	373
867.994	259
868.428	226
868.862	220
869.296	215
869.73	225
870.164	235
870.598	202
871.031	162
871.465	171
871.899	144
872.333	137
872.766	140
873.2	133
873.634	130
874.067	144
874.501	147
874.935	158
875.368	154
875.802	156
876.235	145
876.669	161
877.102	146
877.535	134
877.969	125
878.402	123
878.836	132
879.269	131
879.702	119
880.135	116
880.569	146
881.002	128
881.435	154
881.868	129
882.301	122
882.734	138
883.167	125
883.601	119
884.034	125
884.467	123
884.899	139
885.332	118
885.765	136
886.198	144
886.631	111
887.064	118
887.497	111
887.929	120
888.362	126
888.795	130
889.228	130
889.66	141
890.093	120
890.526	110
890.958	120
891.391	130
891.823	130
892.256	145
892.688	108
893.121	117
893.553	126
893.985	124
894.418	110
894.85	124
895.282	112
895.715	122
896.147	128
896.579	119
897.011	132
897.444	124
897.876	117
898.308	129
898.74	117
899.172	121
899.604	120
900.036	132
900.468	141
900.9	126
901.332	136
901.764	138
902.196	145
902.628	140
903.06	136
903.491	167
903.923	161
904.355	155
904.787	141
905.218	144
905.65	144
906.082	124
906.513	141
906.945	137
907.376	134
907.808	124
908.239	133
908.671	139
909.102	142
909.534	140
909.965	219
910.397	355
910.828	918
911.259	980
911.691	632
912.122	417
912.553	251
912.984	165
913.415	156
913.847	143
914.278	130
914.709	108
915.14	109
915.571	115
916.002	124
916.433	117
916.864	122
917.295	139
917.726	131
918.157	158
918.587	159
919.018	129
919.449	122
919.88	134
920.311	171
920.741	233
921.172	495
921.603	386
922.033	283
922.464	198
922.895	161
923.325	113
923.756	129
924.186	129
924.617	132
925.047	152
925.478	156
925.908	160
926.338	141
926.769	132
927.199	126
927.629	122
928.06	126
928.49	134
928.92	117
929.35	118
929.78	94
930.21	104
930.641	102
931.071	107
931.501	122
931.931	107
932.361	112
932.791	90
933.221	111
933.651	107
934.08	126
934.51	123
934.94	128
935.37	132
935.8	104
936.229	104
936.659	105
937.089	116
937.519	114
937.948	126
938.378	128
938.807	109
939.237	96
939.666	104
940.096	95
940.525	100
940.955	99
941.384	94
941.814	99
942.243	107
942.672	94
943.102	94
943.531	110
943.96	88
944.39	87
944.819	89
945.248	96
945.677	100
946.106	91
946.535	91
946.964	87
947.393	101
947.822	94
948.251	90
948.68	98
949.109	80
949.538	104
949.967	104
950.396	102
950.825	94
951.254	104
951.682	90
952.111	103
952.54	100
952.969	95
953.397	88
953.826	88
954.254	111
954.683	95
955.112	97
955.54	103
955.969	96
956.397	102
956.826	99
957.254	105
957.682	98
958.111	76
958.539	92
958.967	101
959.396	96
959.824	98
960.252	109
960.68	99
961.109	95
961.537	90
961.965	85
962.393	103
962.821	91
963.249	87
963.677	101
964.105	125
964.533	204
964.961	160
965.389	168
965.817	106
966.245	106
966.672	93
967.1	95
967.528	99
967.956	101
968.383	103
968.811	74
969.239	92
969.666	96
970.094	94
970.522	98
970.949	96
971.377	89
971.804	74
972.232	104
972.659	88
973.087	81
973.514	95
973.941	92
974.369	79
974.796	93
975.223	95
975.651	85
976.078	96
976.505	90
976.932	112
977.359	112
977.786	114
978.214	119
978.641	105
979.068	97
979.495	101
979.922	94
980.349	78
980.776	79
981.202	73
981.629	89
982.056	96
982.483	82
982.91	97
983.337	100
983.763	88
984.19	84
984.617	90
985.043	72
985.47	77
985.897	109
986.323	88
986.75	103
987.176	89
987.603	95
988.029	72
988.456	80
988.882	84
989.308	81
989.735	86
990.161	95
990.587	71
991.014	88
991.44	81
991.866	90
992.292	93
992.719	94
993.145	89
993.571	84
993.997	91
994.423	100
994.849	91
995.275	88
995.701	113
996.127	98
996.553	86
996.979	91
997.405	96
997.83	88
998.256	86
998.682	88
999.108	85
999.534	88
999.959	97
1000.385	85
1000.811	72
1001.236	96
1001.662	100
1002.087	96
1002.513	93
1002.938	96
1003.364	95
1003.789	85
1004.215	88
1004.64	86
1005.066	86
1005.491	80
1005.916	86
1006.342	101
1006.767	87
1007.192	90
1007.617	81
1008.042	87
1008.468	94
1008.893	95
1009.318	93
1009.743	75
1010.168	89
1010.593	106
1011.018	103
1011.443	101
1011.868	94
1012.293	95
1012.718	86
1013.143	91
1013.567	67
1013.992	84
1014.417	75
1014.842	88
1015.267	94
1015.691	99
1016.116	112
1016.541	82
1016.965	98
1017.39	80
1017.814	89
1018.239	81
1018.663	100
1019.088	86
1019.512	70
1019.937	101
1020.361	85
1020.785	90
1021.21	98
1021.634	67
1022.058	90
1022.483	86
1022.907	87
1023.331	88
1023.755	103
1024.179	82
1024.604	86
1025.028	84
1025.452	78
1025.876	91
1026.3	79
1026.724	78
1027.148	90
1027.572	86
1027.996	87
1028.42	90
1028.843	80
1029.267	90
1029.691	81
1030.115	80
1030.539	97
1030.962	76
1031.386	80
1031.81	78
1032.233	84
1032.657	78
1033.08	81
1033.504	69
1033.927	80
1034.351	83
1034.774	88
1035.198	88
1035.621	101
1036.045	80
1036.468	83
1036.891	88
1037.315	101
1037.738	84
1038.161	94
1038.584	82
1039.008	98
1039.431	109
1039.854	83
1040.277	89
1040.7	100
1041.123	94
1041.546	98
1041.969	87
1042.392	83
1042.815	92
1043.238	101
1043.661	101
1044.084	84
1044.507	79
1044.93	90
1045.352	78
1045.775	86
1046.198	92
1046.621	81
1047.043	83
1047.466	91
1047.889	107
1048.311	77
1048.734	94
1049.156	88
1049.579	68
1050.001	91
1050.424	87
1050.846	71
1051.269	81
1051.691	82
1052.113	97
1052.536	60
1052.958	91
1053.38	99
1053.802	97
1054.225	94
1054.647	85
1055.069	72
1055.491	82
1055.913	75
1056.335	92
1056.757	77
1057.179	90
1057.601	79
1058.023	72
1058.445	102
1058.867	83
1059.289	90
1059.711	95
1060.133	76
1060.555	80
1060.976	77
1061.398	96
1061.82	79
1062.241	85
1062.663	90
1063.085	88
1063.506	90
1063.928	80
1064.35	94
1064.771	80
1065.193	80
1065.614	67
1066.035	97
1066.457	94
1066.878	108
1067.3	104
1067.721	107
1068.142	97
1068.564	68
1068.985	82
1069.406	78
1069.827	91
1070.248	105
1070.67	79
1071.091	86
1071.512	84
1071.933	86
1072.354	84
1072.775	81
1073.196	101
1073.617	84
1074.038	87
1074.459	72
1074.88	96
1075.3	95
1075.721	70
1076.142	104
1076.563	80
1076.983	75
1077.404	79
1077.825	92
1078.246	78
1078.666	66
1079.087	90
1079.507	92
1079.928	77
1080.348	84
1080.769	80
1081.189	87
1081.61	82
1082.03	95
1082.451	80
1082.871	91
1083.291	83
1083.711	78
1084.132	101
1084.552	93
1084.972	104
1085.392	84
1085.813	86
1086.233	70
1086.653	99
1087.073	88
1087.493	83
1087.913	78
1088.333	99
1088.753	81
1089.173	92
1089.593	85
1090.013	75
1090.433	91
1090.852	85
1091.272	75
1091.692	72
1092.112	101
1092.531	96
1092.951	87
1093.371	86
1093.79	71
1094.21	98
1094.63	96
1095.049	87
1095.469	88
1095.888	87
1096.308	91
1096.727	66
1097.146	99
1097.566	86
1097.985	94
1098.405	76
1098.824	77
1099.243	68
1099.662	75
1100.082	101
1100.501	89
1100.92	82
1101.339	93
1101.758	86
